Date: 15-08-25
Time: 13:57:20 PM

Exp. Conditions:
Cyclic voltammetry
Start potential (V) = .0000
First vertex potential (V) = .5000
Second vertex potential (V) = -.3000
Step potential (V) = .02000
Scan rate (V/s) = 1.49880
Equilibration time (s) = 
Number of Data Points =  80 

 Potential	  Scan 1   
 0.007855	-8.251953E-06
 0.038113	2.396851E-05
 0.058167	4.284363E-05
 0.078186	6.103516E-05
 0.098175	7.897949E-05
 0.118195	9.695435E-05
 0.138184	1.150818E-04
 0.158203	1.333618E-04
 0.178192	1.517944E-04
 0.198212	1.703491E-04
 0.218201	1.889954E-04
 0.238190	2.076721E-04
 0.258209	2.262878E-04
 0.278198	2.447205E-04
 0.298218	2.631531E-04
 0.318207	2.812195E-04
 0.338226	2.988586E-04
 0.358215	3.159790E-04
 0.378235	3.325806E-04
 0.398224	3.478394E-04
 0.418213	3.616943E-04
 0.438232	3.736572E-04
 0.458221	3.830872E-04
 0.478210	3.891296E-04
 0.498352	3.910828E-04
 0.488037	3.662415E-04
 0.467987	3.247070E-04
 0.447968	2.892761E-04
 0.427948	2.587585E-04
 0.407898	2.322083E-04
 0.387878	2.090454E-04
 0.367859	1.885681E-04
 0.347839	1.702576E-04
 0.327820	1.536255E-04
 0.307770	1.382141E-04
 0.287781	1.236267E-04
 0.267731	1.094666E-04
 0.247711	9.536743E-05
 0.227692	8.111572E-05
 0.207672	6.658936E-05
 0.187653	5.151367E-05
 0.167633	3.596497E-05
 0.147614	1.975098E-05
 0.127594	3.060913E-06
 0.107574	-1.412659E-05
 0.087555	-3.170471E-05
 0.067535	-4.962158E-05
 0.047516	-6.799316E-05
 0.027502	-8.636475E-05
 0.007495	-1.048889E-04
 -0.012540	-1.235046E-04
 -0.032562	-1.420593E-04
 -0.052551	-1.605835E-04
 -0.072601	-1.789551E-04
 -0.092590	-1.970825E-04
 -0.112640	-2.148132E-04
 -0.132660	-2.320251E-04
 -0.152679	-2.484436E-04
 -0.172699	-2.638550E-04
 -0.192719	-2.777710E-04
 -0.212738	-2.896423E-04
 -0.232758	-2.985840E-04
 -0.252777	-3.036194E-04
 -0.272797	-3.039856E-04
 -0.292816	-2.994385E-04
 -0.286652	-2.725220E-04
 -0.266632	-2.254333E-04
 -0.246613	-1.873779E-04
 -0.226593	-1.562805E-04
 -0.206604	-1.307068E-04
 -0.186584	-1.095581E-04
 -0.166565	-9.201050E-05
 -0.146576	-7.730103E-05
 -0.126556	-6.488037E-05
 -0.106567	-5.410767E-05
 -0.086578	-4.450073E-05
 -0.066559	-3.541565E-05
 -0.046664	-2.623291E-05
 -0.026657	-1.627502E-05
 -0.006638	-5.130005E-06

 Potential	  Scan 2   
 0.013367	7.409668E-06
 0.033380	2.115479E-05
 0.053436	3.616028E-05
 0.073456	5.209351E-05
 0.093445	6.866455E-05
 0.113464	8.593750E-05
 0.133453	1.036987E-04
 0.153442	1.217651E-04
 0.173462	1.400757E-04
 0.193451	1.585388E-04
 0.213470	1.771240E-04
 0.233459	1.957703E-04
 0.253448	2.142944E-04
 0.273468	2.326660E-04
 0.293457	2.507935E-04
 0.313477	2.685547E-04
 0.333496	2.857971E-04
 0.353455	3.024292E-04
 0.373474	3.183594E-04
 0.393463	3.326111E-04
 0.413483	3.450928E-04
 0.433472	3.551941E-04
 0.453461	3.620911E-04
 0.473480	3.649597E-04
 0.493469	3.632202E-04
 0.493225	3.453064E-04
 0.473206	2.994080E-04
 0.453156	2.619934E-04
 0.433136	2.307739E-04
 0.413116	2.045288E-04
 0.393066	1.820374E-04
 0.373047	1.626282E-04
 0.352997	1.455688E-04
 0.333008	1.303101E-04
 0.312988	1.164246E-04
 0.292969	1.035156E-04
 0.272919	9.121704E-05
 0.252899	7.913208E-05
 0.232880	6.695557E-05
 0.212860	5.438232E-05
 0.192841	4.129333E-05
 0.172821	2.740173E-05
 0.152802	1.273193E-05
 0.132782	-2.685547E-06
 0.112762	-1.875000E-05
 0.092773	-3.544922E-05
 0.072723	-5.282593E-05
 0.052704	-7.040405E-05
 0.032703	-8.831787E-05
 0.012683	-1.065063E-04
 -0.007336	-1.248169E-04
 -0.027365	-1.432495E-04
 -0.047385	-1.616821E-04
 -0.067413	-1.800842E-04
 -0.087402	-1.983032E-04
 -0.107422	-2.162476E-04
 -0.127441	-2.338257E-04
 -0.147461	-2.508545E-04
 -0.167480	-2.671204E-04
 -0.187500	-2.822571E-04
 -0.207520	-2.958984E-04
 -0.227539	-3.073425E-04
 -0.247559	-3.158264E-04
 -0.267578	-3.202515E-04
 -0.287598	-3.199768E-04
 -0.291016	-3.071899E-04
 -0.270996	-2.589417E-04
 -0.250977	-2.192383E-04
 -0.230957	-1.862488E-04
 -0.210968	-1.587524E-04
 -0.190948	-1.357727E-04
 -0.170929	-1.164856E-04
 -0.150909	-1.001587E-04
 -0.130920	-8.618164E-05
 -0.110901	-7.388306E-05
 -0.090912	-6.277466E-05
 -0.070923	-5.212402E-05
 -0.050903	-4.137573E-05
 -0.031012	-2.995605E-05
 -0.011014	-1.748352E-05

 Potential	  Scan 3   
 0.009015	-3.872681E-06
 0.029010	1.082153E-05
 0.049011	2.647705E-05
 0.069092	4.281311E-05
 0.089081	5.987549E-05
 0.109100	7.745361E-05
 0.129089	9.536743E-05
 0.149109	1.136169E-04
 0.169098	1.321106E-04
 0.189117	1.506958E-04
 0.209106	1.693420E-04
 0.229095	1.879578E-04
 0.249115	2.065430E-04
 0.269104	2.249146E-04
 0.289093	2.430420E-04
 0.309082	2.607727E-04
 0.329132	2.779846E-04
 0.349091	2.944336E-04
 0.369110	3.098450E-04
 0.389130	3.242188E-04
 0.409119	3.363037E-04
 0.429108	3.459473E-04
 0.449127	3.520813E-04
 0.469116	3.540955E-04
 0.489105	3.514099E-04
 0.494080	3.383179E-04
 0.474060	2.902832E-04
 0.454010	2.519531E-04
 0.433990	2.204590E-04
 0.413940	1.941528E-04
 0.393921	1.718140E-04
 0.373901	1.525879E-04
 0.353882	1.357727E-04
 0.333862	1.208191E-04
 0.313843	1.073608E-04
 0.293793	9.494019E-05
 0.273773	8.316040E-05
 0.253754	7.168579E-05
 0.233734	6.015015E-05
 0.213715	4.834290E-05
 0.193695	3.583374E-05
 0.173676	2.256470E-05
 0.153656	8.483887E-06
 0.133636	-6.445313E-06
 0.113617	-2.204895E-05
 0.093597	-3.847961E-05
 0.073578	-5.541992E-05
 0.053558	-7.275391E-05
 0.033551	-9.048462E-05
 0.013535	-1.085510E-04
 -0.006500	-1.267700E-04
 -0.026517	-1.451111E-04
 -0.046539	-1.635132E-04
 -0.066528	-1.818848E-04
 -0.086548	-2.001343E-04
 -0.106567	-2.181702E-04
 -0.126617	-2.358398E-04
 -0.146637	-2.530212E-04
 -0.166626	-2.695007E-04
 -0.186646	-2.849731E-04
 -0.206665	-2.990723E-04
 -0.226685	-3.112183E-04
 -0.246735	-3.206482E-04
 -0.266754	-3.262634E-04
 -0.286774	-3.274536E-04
 -0.292114	-3.184204E-04
 -0.272125	-2.704468E-04
 -0.252106	-2.307129E-04
 -0.232086	-1.974792E-04
 -0.212067	-1.695862E-04
 -0.192078	-1.461487E-04
 -0.172058	-1.263733E-04
 -0.152039	-1.094971E-04
 -0.132050	-9.500122E-05
 -0.112030	-8.218384E-05
 -0.092041	-7.046509E-05
 -0.072052	-5.917358E-05
 -0.052032	-4.776611E-05
 -0.032132	-3.571167E-05
 -0.012119	-2.270203E-05

 Potential	  Scan 4   
 0.007901	-8.660889E-06
 0.027899	6.402588E-06
 0.047882	2.231140E-05
 0.067993	3.887939E-05
 0.087982	5.612183E-05
 0.108002	7.382202E-05
 0.127991	9.188843E-05
 0.147980	1.101990E-04
 0.167999	1.287231E-04
 0.187988	1.473389E-04
 0.208008	1.660156E-04
 0.227997	1.846924E-04
 0.247986	2.032166E-04
 0.268005	2.215881E-04
 0.287994	2.396851E-04
 0.307983	2.572937E-04
 0.328003	2.744446E-04
 0.347992	2.908020E-04
 0.367981	3.061523E-04
 0.388000	3.202820E-04
 0.407990	3.321228E-04
 0.428009	3.413391E-04
 0.447998	3.470459E-04
 0.468018	3.484192E-04
 0.488007	3.450012E-04
 0.498352	3.356323E-04
 0.477875	2.869568E-04
 0.457855	2.476807E-04
 0.437836	2.157898E-04
 0.417816	1.893005E-04
 0.397797	1.669006E-04
 0.377777	1.477051E-04
 0.357727	1.310120E-04
 0.337708	1.162109E-04
 0.317688	1.029358E-04
 0.297638	9.075928E-05
 0.277618	7.928467E-05
 0.257599	6.823730E-05
 0.237579	5.718994E-05
 0.217590	4.590149E-05
 0.197540	3.397217E-05
 0.177521	2.125244E-05
 0.157501	7.693481E-06
 0.137482	-6.765747E-06
 0.117462	-2.202148E-05
 0.097443	-3.812866E-05
 0.077423	-5.480957E-05
 0.057404	-7.196045E-05
 0.037396	-8.950806E-05
 0.017383	-1.073914E-04
 -0.002634	-1.254883E-04
 -0.022665	-1.437683E-04
 -0.042691	-1.621094E-04
 -0.062683	-1.804810E-04
 -0.082703	-1.987305E-04
 -0.102722	-2.168274E-04
 -0.122742	-2.346191E-04
 -0.142761	-2.519531E-04
 -0.162781	-2.686462E-04
 -0.182800	-2.844543E-04
 -0.202820	-2.990112E-04
 -0.222839	-3.118286E-04
 -0.242859	-3.222046E-04
 -0.262878	-3.290710E-04
 -0.282898	-3.317566E-04
 -0.294922	-3.292236E-04
 -0.274902	-2.831726E-04
 -0.254883	-2.425537E-04
 -0.234863	-2.084351E-04
 -0.214844	-1.796570E-04
 -0.194855	-1.553955E-04
 -0.174835	-1.348572E-04
 -0.154816	-1.173401E-04
 -0.134827	-1.022034E-04
 -0.114807	-8.886719E-05
 -0.094818	-7.666016E-05
 -0.074829	-6.497192E-05
 -0.054810	-5.316162E-05
 -0.034912	-4.082031E-05
 -0.014902	-2.761230E-05

 Potential	  Scan 5   
 0.005121	-1.338196E-05
 0.025116	1.803589E-06
 0.045126	1.781921E-05
 0.065186	3.452148E-05
 0.085205	5.169678E-05
 0.105225	6.945801E-05
 0.125214	8.752441E-05
 0.145233	1.058960E-04
 0.165222	1.244202E-04
 0.185211	1.430969E-04
 0.205231	1.617737E-04
 0.225220	1.804504E-04
 0.245209	1.990356E-04
 0.265228	2.174377E-04
 0.285217	2.355652E-04
 0.305206	2.532959E-04
 0.325226	2.705078E-04
 0.345215	2.869263E-04
 0.365234	3.023071E-04
 0.385223	3.165283E-04
 0.405212	3.284302E-04
 0.425232	3.377380E-04
 0.445221	3.435364E-04
 0.465240	3.450012E-04
 0.485229	3.416138E-04
 0.502014	3.337097E-04
 0.481598	2.890015E-04
 0.461578	2.482910E-04
 0.441528	2.154846E-04
 0.421509	1.884460E-04
 0.401489	1.656799E-04
 0.381470	1.462402E-04
 0.361420	1.293945E-04
 0.341400	1.145020E-04
 0.321381	1.012268E-04
 0.301361	8.911133E-05
 0.281342	7.778931E-05
 0.261322	6.692505E-05
 0.241272	5.612183E-05
 0.221252	4.519958E-05
 0.201233	3.364258E-05
 0.181213	2.135010E-05
 0.161194	8.175659E-06
 0.141174	-5.905151E-06
 0.121155	-2.083740E-05
 0.101135	-3.664856E-05
 0.081146	-5.307007E-05
 0.061127	-7.000732E-05
 0.041098	-8.743286E-05
 0.021085	-1.051941E-04
 0.001062	-1.231995E-04
 -0.018967	-1.414185E-04
 -0.038989	-1.597290E-04
 -0.058990	-1.780701E-04
 -0.079010	-1.963501E-04
 -0.099030	-2.144775E-04
 -0.119049	-2.323608E-04
 -0.139069	-2.498169E-04
 -0.159088	-2.666931E-04
 -0.179108	-2.827759E-04
 -0.199127	-2.977295E-04
 -0.219147	-3.110657E-04
 -0.239166	-3.222046E-04
 -0.259186	-3.301392E-04
 -0.279205	-3.341370E-04
 -0.298248	-3.334351E-04
 -0.279694	-2.960205E-04
 -0.259674	-2.540588E-04
 -0.239685	-2.187195E-04
 -0.219666	-1.888733E-04
 -0.199646	-1.636963E-04
 -0.179626	-1.423340E-04
 -0.159637	-1.241150E-04
 -0.139618	-1.083984E-04
 -0.119629	-9.454346E-05
 -0.099609	-8.197021E-05
 -0.079620	-7.000732E-05
 -0.059631	-5.807495E-05
 -0.039725	-4.566345E-05
 -0.019711	-3.244629E-05
