Date: 15-08-25
Time: 13:53:24 PM

Exp. Conditions:
Cyclic voltammetry
Start potential (V) = .0000
First vertex potential (V) = .5000
Second vertex potential (V) = -.3000
Step potential (V) = .00500
Scan rate (V/s) = .69989
Equilibration time (s) = 
Number of Data Points =  320 

 Potential	  Scan 1   
 0.002161	-1.099548E-05
 0.009769	-2.371521E-06
 0.014767	2.817993E-06
 0.019757	7.791138E-06
 0.024747	1.256714E-05
 0.029742	1.719360E-05
 0.034738	2.171631E-05
 0.039740	2.615051E-05
 0.044730	3.052368E-05
 0.049713	3.483887E-05
 0.054749	3.912354E-05
 0.059753	4.338379E-05
 0.064758	4.763794E-05
 0.069733	5.187988E-05
 0.074738	5.609131E-05
 0.079742	6.033325E-05
 0.084717	6.457520E-05
 0.089722	6.881714E-05
 0.094696	7.305908E-05
 0.099701	7.730103E-05
 0.104706	8.157349E-05
 0.109680	8.584595E-05
 0.114685	9.011841E-05
 0.119690	9.442139E-05
 0.124664	9.872437E-05
 0.129669	1.030273E-04
 0.134644	1.073303E-04
 0.139648	1.116638E-04
 0.144623	1.159668E-04
 0.149628	1.203003E-04
 0.154633	1.246338E-04
 0.159607	1.289673E-04
 0.164612	1.333008E-04
 0.169586	1.376343E-04
 0.174591	1.419373E-04
 0.179596	1.463013E-04
 0.184570	1.506042E-04
 0.189575	1.549072E-04
 0.194580	1.592102E-04
 0.199554	1.635132E-04
 0.204559	1.677856E-04
 0.209534	1.720581E-04
 0.214539	1.763000E-04
 0.219513	1.805115E-04
 0.224518	1.847229E-04
 0.229492	1.889038E-04
 0.234497	1.930542E-04
 0.239502	1.971741E-04
 0.244507	2.012634E-04
 0.249481	2.053223E-04
 0.254486	2.093201E-04
 0.259460	2.132568E-04
 0.264465	2.171936E-04
 0.269440	2.210388E-04
 0.274445	2.248535E-04
 0.279419	2.285461E-04
 0.284424	2.322083E-04
 0.289398	2.357788E-04
 0.294403	2.392578E-04
 0.299408	2.426758E-04
 0.304413	2.459717E-04
 0.309357	2.491150E-04
 0.314362	2.521667E-04
 0.319397	2.550964E-04
 0.324371	2.578430E-04
 0.329376	2.604675E-04
 0.334351	2.629089E-04
 0.339355	2.651062E-04
 0.344330	2.670898E-04
 0.349304	2.688904E-04
 0.354309	2.703857E-04
 0.359314	2.716370E-04
 0.364288	2.725830E-04
 0.369263	2.731934E-04
 0.374298	2.734680E-04
 0.379272	2.733459E-04
 0.384277	2.729187E-04
 0.389252	2.720337E-04
 0.394257	2.707825E-04
 0.399231	2.691040E-04
 0.404236	2.670593E-04
 0.409241	2.646179E-04
 0.414215	2.618408E-04
 0.419189	2.587585E-04
 0.424194	2.554626E-04
 0.429169	2.519836E-04
 0.434174	2.484436E-04
 0.439178	2.448425E-04
 0.444183	2.412415E-04
 0.449158	2.377014E-04
 0.454132	2.342834E-04
 0.459167	2.309570E-04
 0.464142	2.277527E-04
 0.469116	2.246704E-04
 0.474121	2.217102E-04
 0.479095	2.188721E-04
 0.484100	2.161255E-04
 0.489105	2.135010E-04
 0.494080	2.109985E-04
 0.499084	2.085571E-04
 0.500793	2.047424E-04
 0.495300	1.926880E-04
 0.490295	1.826782E-04
 0.485291	1.739807E-04
 0.480286	1.662598E-04
 0.475281	1.593323E-04
 0.470276	1.530457E-04
 0.465271	1.473389E-04
 0.460297	1.420593E-04
 0.455261	1.372070E-04
 0.450287	1.327209E-04
 0.445282	1.285400E-04
 0.440277	1.246338E-04
 0.435272	1.209717E-04
 0.430267	1.175232E-04
 0.425262	1.142883E-04
 0.420258	1.112366E-04
 0.415283	1.083374E-04
 0.410278	1.055908E-04
 0.405273	1.029663E-04
 0.400269	1.004944E-04
 0.395264	9.808350E-05
 0.390259	9.579468E-05
 0.385254	9.359741E-05
 0.380249	9.149170E-05
 0.375275	8.944702E-05
 0.370239	8.749390E-05
 0.365265	8.560181E-05
 0.360260	8.377075E-05
 0.355255	8.197021E-05
 0.350250	8.023071E-05
 0.345245	7.852173E-05
 0.340271	7.687378E-05
 0.335266	7.528687E-05
 0.330261	7.369995E-05
 0.325256	7.214355E-05
 0.320251	7.061768E-05
 0.315277	6.912231E-05
 0.310242	6.765747E-05
 0.305267	6.616211E-05
 0.300262	6.472778E-05
 0.295258	6.329346E-05
 0.290253	6.185913E-05
 0.285248	6.042480E-05
 0.280273	5.899048E-05
 0.275269	5.755615E-05
 0.270264	5.609131E-05
 0.265259	5.465698E-05
 0.260254	5.319214E-05
 0.255249	5.166626E-05
 0.250244	5.017090E-05
 0.245270	4.863892E-05
 0.240265	4.705200E-05
 0.235260	4.542236E-05
 0.230255	4.374390E-05
 0.225250	4.201660E-05
 0.220276	4.023743E-05
 0.215271	3.838806E-05
 0.210266	3.648376E-05
 0.205261	3.450623E-05
 0.200256	3.244934E-05
 0.195282	3.032227E-05
 0.190277	2.811279E-05
 0.185272	2.582397E-05
 0.180267	2.345886E-05
 0.175262	2.098999E-05
 0.170258	1.844482E-05
 0.165253	1.581116E-05
 0.160248	1.308899E-05
 0.155273	1.029053E-05
 0.150269	7.406616E-06
 0.145264	4.453735E-06
 0.140259	1.399231E-06
 0.135254	-1.723328E-06
 0.130280	-4.919434E-06
 0.125275	-8.203125E-06
 0.120270	-1.155396E-05
 0.115265	-1.496887E-05
 0.110260	-1.844482E-05
 0.105255	-2.198181E-05
 0.100281	-2.557068E-05
 0.095276	-2.922363E-05
 0.090271	-3.292847E-05
 0.085297	-3.667908E-05
 0.080261	-4.047852E-05
 0.075287	-4.431763E-05
 0.070282	-4.819336E-05
 0.065277	-5.215454E-05
 0.060272	-5.612183E-05
 0.055267	-6.011963E-05
 0.050262	-6.414795E-05
 0.045267	-6.817627E-05
 0.040268	-7.223511E-05
 0.035263	-7.635498E-05
 0.030264	-8.047485E-05
 0.025262	-8.459473E-05
 0.020264	-8.874512E-05
 0.015262	-9.292603E-05
 0.010266	-9.707642E-05
 0.005267	-1.012573E-04
 0.000269	-1.054688E-04
 -0.004721	-1.096497E-04
 -0.009732	-1.138611E-04
 -0.014734	-1.180725E-04
 -0.019739	-1.222839E-04
 -0.024738	-1.264648E-04
 -0.029736	-1.306458E-04
 -0.034735	-1.348267E-04
 -0.039737	-1.390076E-04
 -0.044736	-1.431274E-04
 -0.049683	-1.472778E-04
 -0.054688	-1.513977E-04
 -0.059692	-1.554871E-04
 -0.064697	-1.595459E-04
 -0.069702	-1.635742E-04
 -0.074707	-1.675720E-04
 -0.079681	-1.715393E-04
 -0.084686	-1.754761E-04
 -0.089691	-1.793518E-04
 -0.094696	-1.831360E-04
 -0.099701	-1.868896E-04
 -0.104675	-1.906128E-04
 -0.109680	-1.942444E-04
 -0.114685	-1.977539E-04
 -0.119690	-2.012329E-04
 -0.124695	-2.045898E-04
 -0.129700	-2.078247E-04
 -0.134674	-2.109375E-04
 -0.139679	-2.139587E-04
 -0.144684	-2.167969E-04
 -0.149689	-2.195129E-04
 -0.154663	-2.219849E-04
 -0.159668	-2.243042E-04
 -0.164673	-2.263794E-04
 -0.169678	-2.282410E-04
 -0.174652	-2.297974E-04
 -0.179657	-2.310791E-04
 -0.184662	-2.320251E-04
 -0.189667	-2.326355E-04
 -0.194641	-2.328491E-04
 -0.199677	-2.326965E-04
 -0.204651	-2.321167E-04
 -0.209656	-2.310791E-04
 -0.214661	-2.296143E-04
 -0.219666	-2.277222E-04
 -0.224670	-2.254028E-04
 -0.229645	-2.227173E-04
 -0.234650	-2.196960E-04
 -0.239655	-2.163391E-04
 -0.244659	-2.128296E-04
 -0.249634	-2.091675E-04
 -0.254669	-2.054138E-04
 -0.259644	-2.016602E-04
 -0.264648	-1.979370E-04
 -0.269653	-1.943054E-04
 -0.274658	-1.907654E-04
 -0.279633	-1.873779E-04
 -0.284637	-1.841125E-04
 -0.289642	-1.809998E-04
 -0.294647	-1.780396E-04
 -0.297668	-1.751404E-04
 -0.292694	-1.617737E-04
 -0.287689	-1.495972E-04
 -0.282715	-1.390076E-04
 -0.277710	-1.296387E-04
 -0.272705	-1.213684E-04
 -0.267700	-1.139832E-04
 -0.262695	-1.074219E-04
 -0.257721	-1.015015E-04
 -0.252716	-9.622192E-05
 -0.247711	-9.140015E-05
 -0.242737	-8.703613E-05
 -0.237732	-8.309937E-05
 -0.232758	-7.946777E-05
 -0.227753	-7.617188E-05
 -0.222748	-7.315063E-05
 -0.217743	-7.037354E-05
 -0.212738	-6.781006E-05
 -0.207764	-6.546021E-05
 -0.202759	-6.326294E-05
 -0.197784	-6.121826E-05
 -0.192780	-5.932617E-05
 -0.187775	-5.755615E-05
 -0.182770	-5.587769E-05
 -0.177795	-5.432129E-05
 -0.172791	-5.285645E-05
 -0.167816	-5.148315E-05
 -0.162811	-5.014038E-05
 -0.157806	-4.887695E-05
 -0.152832	-4.768066E-05
 -0.147858	-4.652710E-05
 -0.142853	-4.541931E-05
 -0.137848	-4.434509E-05
 -0.132874	-4.328613E-05
 -0.127869	-4.225464E-05
 -0.122864	-4.123535E-05
 -0.117889	-4.023132E-05
 -0.112885	-3.922424E-05
 -0.107910	-3.819885E-05
 -0.102905	-3.716431E-05
 -0.097900	-3.609924E-05
 -0.092926	-3.500366E-05
 -0.087921	-3.386536E-05
 -0.082947	-3.267517E-05
 -0.077942	-3.141479E-05
 -0.072937	-3.010254E-05
 -0.067963	-2.870789E-05
 -0.062958	-2.722778E-05
 -0.057953	-2.564697E-05
 -0.052979	-2.396851E-05
 -0.048071	-2.217712E-05
 -0.043073	-2.027588E-05
 -0.038080	-1.825562E-05
 -0.033084	-1.612244E-05
 -0.028079	-1.386719E-05
 -0.023093	-1.149292E-05
 -0.018097	-9.005737E-06
 -0.013104	-6.402588E-06
 -0.008105	-3.688354E-06
 -0.003107	-8.398438E-07

 Potential	  Scan 2   
 0.001880	2.066345E-06
 0.006891	5.102539E-06
 0.011862	8.221436E-06
 0.016855	1.142883E-05
 0.021851	1.473083E-05
 0.026843	1.810608E-05
 0.031845	2.155762E-05
 0.036832	2.508545E-05
 0.041824	2.867126E-05
 0.046820	3.232727E-05
 0.051849	3.603516E-05
 0.056854	3.980103E-05
 0.061829	4.363708E-05
 0.066833	4.748840E-05
 0.071838	5.139160E-05
 0.076843	5.532837E-05
 0.081818	5.932617E-05
 0.086792	6.335449E-05
 0.091797	6.744385E-05
 0.096802	7.150269E-05
 0.101776	7.565308E-05
 0.106781	7.977295E-05
 0.111755	8.395386E-05
 0.116760	8.813477E-05
 0.121765	9.234619E-05
 0.126740	9.655762E-05
 0.131744	1.007996E-04
 0.136749	1.050415E-04
 0.141724	1.093140E-04
 0.146729	1.135864E-04
 0.151703	1.178589E-04
 0.156708	1.221313E-04
 0.161713	1.264038E-04
 0.166687	1.306763E-04
 0.171692	1.349792E-04
 0.176666	1.392517E-04
 0.181671	1.434937E-04
 0.186646	1.477661E-04
 0.191650	1.520081E-04
 0.196625	1.562500E-04
 0.201630	1.604919E-04
 0.206635	1.646729E-04
 0.211639	1.688843E-04
 0.216614	1.730347E-04
 0.221588	1.771851E-04
 0.226593	1.812744E-04
 0.231598	1.853638E-04
 0.236603	1.894226E-04
 0.241577	1.934204E-04
 0.246582	1.973267E-04
 0.251556	2.012329E-04
 0.256561	2.050781E-04
 0.261536	2.088928E-04
 0.266541	2.125854E-04
 0.271545	2.162476E-04
 0.276520	2.198181E-04
 0.281525	2.233276E-04
 0.286499	2.267151E-04
 0.291504	2.300110E-04
 0.296478	2.331848E-04
 0.301483	2.362366E-04
 0.306458	2.391357E-04
 0.311462	2.419128E-04
 0.316467	2.445374E-04
 0.321442	2.469482E-04
 0.326447	2.491760E-04
 0.331421	2.511597E-04
 0.336426	2.529297E-04
 0.341431	2.544556E-04
 0.346405	2.556763E-04
 0.351410	2.566223E-04
 0.356384	2.572327E-04
 0.361389	2.574463E-04
 0.366364	2.573547E-04
 0.371368	2.568054E-04
 0.376343	2.558899E-04
 0.381348	2.545471E-04
 0.386322	2.527771E-04
 0.391327	2.505798E-04
 0.396332	2.480164E-04
 0.401306	2.451172E-04
 0.406311	2.418823E-04
 0.411285	2.384644E-04
 0.416290	2.348328E-04
 0.421295	2.311401E-04
 0.426270	2.273865E-04
 0.431274	2.236633E-04
 0.436279	2.200012E-04
 0.441254	2.164612E-04
 0.446259	2.129822E-04
 0.451263	2.096863E-04
 0.456238	2.064819E-04
 0.461212	2.034607E-04
 0.466217	2.005310E-04
 0.471222	1.977539E-04
 0.476196	1.950378E-04
 0.481201	1.925049E-04
 0.486176	1.900024E-04
 0.491180	1.876526E-04
 0.496155	1.853638E-04
 0.497406	1.816711E-04
 0.492401	1.699219E-04
 0.487396	1.602478E-04
 0.482391	1.519165E-04
 0.477386	1.445313E-04
 0.472382	1.379700E-04
 0.467377	1.320496E-04
 0.462372	1.266785E-04
 0.457367	1.217651E-04
 0.452393	1.172791E-04
 0.447388	1.130981E-04
 0.442383	1.092529E-04
 0.437378	1.056824E-04
 0.432373	1.023254E-04
 0.427368	9.918213E-05
 0.422363	9.619141E-05
 0.417358	9.341431E-05
 0.412354	9.075928E-05
 0.407349	8.825684E-05
 0.402374	8.587646E-05
 0.397369	8.361816E-05
 0.392365	8.145142E-05
 0.387360	7.937622E-05
 0.382355	7.739258E-05
 0.377350	7.546997E-05
 0.372345	7.360840E-05
 0.367340	7.183838E-05
 0.362366	7.012939E-05
 0.357361	6.845093E-05
 0.352356	6.683350E-05
 0.347351	6.524658E-05
 0.342346	6.369019E-05
 0.337341	6.219482E-05
 0.332367	6.076050E-05
 0.327362	5.929565E-05
 0.322357	5.792236E-05
 0.317352	5.651855E-05
 0.312347	5.517578E-05
 0.307343	5.383301E-05
 0.302338	5.252075E-05
 0.297363	5.120850E-05
 0.292358	4.989624E-05
 0.287354	4.862976E-05
 0.282349	4.733887E-05
 0.277344	4.604797E-05
 0.272369	4.475708E-05
 0.267365	4.345703E-05
 0.262360	4.214783E-05
 0.257355	4.082336E-05
 0.252350	3.948364E-05
 0.247345	3.811951E-05
 0.242371	3.673096E-05
 0.237366	3.530884E-05
 0.232361	3.383789E-05
 0.227356	3.233948E-05
 0.222351	3.079224E-05
 0.217346	2.918701E-05
 0.212341	2.752380E-05
 0.207367	2.580566E-05
 0.202362	2.402344E-05
 0.197357	2.216492E-05
 0.192352	2.023315E-05
 0.187347	1.822205E-05
 0.182343	1.613159E-05
 0.177368	1.394958E-05
 0.172363	1.168213E-05
 0.167358	9.332275E-06
 0.162354	6.890869E-06
 0.157349	4.372253E-06
 0.152344	1.743774E-06
 0.147369	-9.640503E-07
 0.142365	-3.762512E-06
 0.137360	-6.655884E-06
 0.132355	-9.628296E-06
 0.127380	-1.268005E-05
 0.122375	-1.580811E-05
 0.117371	-1.901550E-05
 0.112366	-2.229614E-05
 0.107361	-2.564392E-05
 0.102386	-2.905884E-05
 0.097382	-3.253784E-05
 0.092377	-3.608704E-05
 0.087372	-3.969421E-05
 0.082397	-4.335022E-05
 0.077393	-4.706116E-05
 0.072388	-5.087280E-05
 0.067383	-5.465698E-05
 0.062378	-5.853271E-05
 0.057373	-6.240845E-05
 0.052368	-6.631470E-05
 0.047366	-7.028198E-05
 0.042374	-7.427979E-05
 0.037369	-7.830811E-05
 0.032373	-8.233643E-05
 0.027368	-8.639526E-05
 0.022369	-9.051514E-05
 0.017368	-9.460449E-05
 0.012366	-9.875488E-05
 0.007385	-1.028748E-04
 0.002368	-1.070251E-04
 -0.002628	-1.112061E-04
 -0.007635	-1.153870E-04
 -0.012631	-1.195374E-04
 -0.017633	-1.237183E-04
 -0.022635	-1.278992E-04
 -0.027637	-1.321106E-04
 -0.032632	-1.362610E-04
 -0.037634	-1.404419E-04
 -0.042630	-1.445923E-04
 -0.047632	-1.487427E-04
 -0.052582	-1.528931E-04
 -0.057587	-1.569824E-04
 -0.062592	-1.610718E-04
 -0.067596	-1.651611E-04
 -0.072571	-1.691895E-04
 -0.077606	-1.732178E-04
 -0.082581	-1.771851E-04
 -0.087585	-1.811523E-04
 -0.092590	-1.850586E-04
 -0.097565	-1.888733E-04
 -0.102570	-1.926880E-04
 -0.107574	-1.964111E-04
 -0.112579	-2.000732E-04
 -0.117584	-2.036743E-04
 -0.122589	-2.071838E-04
 -0.127594	-2.106018E-04
 -0.132568	-2.139282E-04
 -0.137573	-2.171631E-04
 -0.142578	-2.202454E-04
 -0.147583	-2.232056E-04
 -0.152557	-2.260132E-04
 -0.157562	-2.286377E-04
 -0.162567	-2.311096E-04
 -0.167572	-2.333679E-04
 -0.172577	-2.354126E-04
 -0.177582	-2.371826E-04
 -0.182556	-2.387085E-04
 -0.187561	-2.398987E-04
 -0.192566	-2.408142E-04
 -0.197571	-2.413330E-04
 -0.202576	-2.415161E-04
 -0.207581	-2.412720E-04
 -0.212555	-2.406311E-04
 -0.217560	-2.395630E-04
 -0.222565	-2.380371E-04
 -0.227570	-2.361145E-04
 -0.232574	-2.337646E-04
 -0.237549	-2.310486E-04
 -0.242554	-2.279968E-04
 -0.247559	-2.246704E-04
 -0.252563	-2.211304E-04
 -0.257568	-2.174072E-04
 -0.262543	-2.136536E-04
 -0.267548	-2.098694E-04
 -0.272552	-2.061157E-04
 -0.277557	-2.023926E-04
 -0.282562	-1.988220E-04
 -0.287567	-1.953430E-04
 -0.292542	-1.920471E-04
 -0.297546	-1.888428E-04
 -0.296234	-1.812439E-04
 -0.291260	-1.677856E-04
 -0.286255	-1.560974E-04
 -0.281250	-1.458740E-04
 -0.276245	-1.368103E-04
 -0.271271	-1.288147E-04
 -0.266266	-1.216736E-04
 -0.261292	-1.152649E-04
 -0.256287	-1.094971E-04
 -0.251282	-1.043091E-04
 -0.246277	-9.960938E-05
 -0.241272	-9.530640E-05
 -0.236298	-9.140015E-05
 -0.231293	-8.786011E-05
 -0.226288	-8.459473E-05
 -0.221283	-8.160400E-05
 -0.216309	-7.882690E-05
 -0.211304	-7.626343E-05
 -0.206329	-7.388306E-05
 -0.201324	-7.168579E-05
 -0.196350	-6.964111E-05
 -0.191345	-6.768799E-05
 -0.186340	-6.588745E-05
 -0.181335	-6.420898E-05
 -0.176361	-6.259155E-05
 -0.171356	-6.109619E-05
 -0.166351	-5.963135E-05
 -0.161377	-5.825806E-05
 -0.156372	-5.694580E-05
 -0.151367	-5.566406E-05
 -0.146393	-5.444336E-05
 -0.141388	-5.328369E-05
 -0.136414	-5.209351E-05
 -0.131409	-5.096436E-05
 -0.126434	-4.981995E-05
 -0.121429	-4.869690E-05
 -0.116455	-4.757690E-05
 -0.111450	-4.644775E-05
 -0.106445	-4.530029E-05
 -0.101471	-4.412231E-05
 -0.096497	-4.291077E-05
 -0.091492	-4.165955E-05
 -0.086487	-4.035645E-05
 -0.081482	-3.898315E-05
 -0.076508	-3.755188E-05
 -0.071503	-3.603210E-05
 -0.066528	-3.443604E-05
 -0.061523	-3.273621E-05
 -0.056519	-3.093567E-05
 -0.051544	-2.901306E-05
 -0.046613	-2.700195E-05
 -0.041626	-2.489014E-05
 -0.036639	-2.265015E-05
 -0.031647	-2.028809E-05
 -0.026648	-1.782227E-05
 -0.021652	-1.523132E-05
 -0.016660	-1.253662E-05
 -0.011658	-9.735107E-06
 -0.006659	-6.832886E-06
 -0.001672	-3.840332E-06

 Potential	  Scan 3   
 0.003323	-7.296753E-07
 0.008322	2.464905E-06
 0.013309	5.718994E-06
 0.018301	9.072876E-06
 0.023288	1.249695E-05
 0.028287	1.599731E-05
 0.033279	1.956787E-05
 0.038272	2.319946E-05
 0.043265	2.689209E-05
 0.048257	3.063965E-05
 0.053284	3.443909E-05
 0.058289	3.829346E-05
 0.063293	4.218140E-05
 0.068298	4.612122E-05
 0.073273	5.007935E-05
 0.078278	5.410767E-05
 0.083252	5.813599E-05
 0.088257	6.222534E-05
 0.093262	6.634521E-05
 0.098236	7.049561E-05
 0.103241	7.464600E-05
 0.108215	7.882690E-05
 0.113220	8.303833E-05
 0.118195	8.724976E-05
 0.123199	9.149170E-05
 0.128204	9.573364E-05
 0.133179	1.000061E-04
 0.138184	1.042786E-04
 0.143158	1.085510E-04
 0.148163	1.128235E-04
 0.153168	1.171265E-04
 0.158142	1.213989E-04
 0.163147	1.256714E-04
 0.168121	1.299744E-04
 0.173126	1.342468E-04
 0.178131	1.385193E-04
 0.183105	1.427917E-04
 0.188110	1.470337E-04
 0.193085	1.512756E-04
 0.198090	1.555176E-04
 0.203094	1.596985E-04
 0.208069	1.638794E-04
 0.213074	1.680603E-04
 0.218048	1.721802E-04
 0.223053	1.763000E-04
 0.228027	1.803589E-04
 0.233032	1.843872E-04
 0.238007	1.883850E-04
 0.243011	1.923218E-04
 0.248016	1.961975E-04
 0.252991	2.000732E-04
 0.257996	2.038269E-04
 0.262970	2.075500E-04
 0.267975	2.111816E-04
 0.272980	2.147522E-04
 0.277985	2.182312E-04
 0.282959	2.216187E-04
 0.287964	2.248840E-04
 0.292938	2.280579E-04
 0.297913	2.310791E-04
 0.302917	2.339478E-04
 0.307892	2.366943E-04
 0.312897	2.392883E-04
 0.317902	2.416687E-04
 0.322876	2.438354E-04
 0.327881	2.457886E-04
 0.332886	2.475281E-04
 0.337860	2.489929E-04
 0.342865	2.501526E-04
 0.347839	2.510071E-04
 0.352844	2.515259E-04
 0.357849	2.517090E-04
 0.362823	2.514954E-04
 0.367828	2.508850E-04
 0.372803	2.498474E-04
 0.377808	2.484131E-04
 0.382813	2.465515E-04
 0.387787	2.442627E-04
 0.392792	2.415771E-04
 0.397766	2.385864E-04
 0.402771	2.352905E-04
 0.407745	2.317810E-04
 0.412750	2.280884E-04
 0.417725	2.243347E-04
 0.422729	2.205811E-04
 0.427734	2.168579E-04
 0.432709	2.131958E-04
 0.437714	2.096252E-04
 0.442688	2.062073E-04
 0.447693	2.028809E-04
 0.452698	1.997070E-04
 0.457672	1.966553E-04
 0.462646	1.937256E-04
 0.467651	1.909180E-04
 0.472656	1.882629E-04
 0.477631	1.856995E-04
 0.482635	1.832275E-04
 0.487610	1.808472E-04
 0.492615	1.785583E-04
 0.497620	1.763306E-04
 0.498932	1.728210E-04
 0.493927	1.611633E-04
 0.488922	1.516113E-04
 0.483917	1.434021E-04
 0.478943	1.362000E-04
 0.473938	1.297913E-04
 0.468933	1.240234E-04
 0.463928	1.188049E-04
 0.458923	1.140442E-04
 0.453918	1.096802E-04
 0.448914	1.056519E-04
 0.443909	1.019592E-04
 0.438904	9.851074E-05
 0.433899	9.527588E-05
 0.428894	9.222412E-05
 0.423889	8.938599E-05
 0.418915	8.670044E-05
 0.413910	8.416748E-05
 0.408905	8.175659E-05
 0.403900	7.946777E-05
 0.398895	7.730103E-05
 0.393890	7.522583E-05
 0.388885	7.321167E-05
 0.383881	7.131958E-05
 0.378906	6.948853E-05
 0.373901	6.768799E-05
 0.368896	6.597900E-05
 0.363892	6.433105E-05
 0.358887	6.271362E-05
 0.353882	6.115723E-05
 0.348907	5.966187E-05
 0.343872	5.819702E-05
 0.338898	5.676270E-05
 0.333893	5.535889E-05
 0.328888	5.398560E-05
 0.323883	5.264282E-05
 0.318878	5.130005E-05
 0.313873	4.998779E-05
 0.308899	4.874878E-05
 0.303894	4.747620E-05
 0.298889	4.622803E-05
 0.293884	4.497986E-05
 0.288879	4.374695E-05
 0.283875	4.251404E-05
 0.278900	4.128113E-05
 0.273895	4.005432E-05
 0.268890	3.881531E-05
 0.263885	3.757019E-05
 0.258881	3.631592E-05
 0.253906	3.504639E-05
 0.248901	3.375244E-05
 0.243866	3.244934E-05
 0.238892	3.110046E-05
 0.233887	2.972412E-05
 0.228882	2.830811E-05
 0.223877	2.685547E-05
 0.218903	2.535095E-05
 0.213898	2.380371E-05
 0.208893	2.218628E-05
 0.203888	2.052002E-05
 0.198883	1.877747E-05
 0.193909	1.696472E-05
 0.188904	1.507568E-05
 0.183868	1.310730E-05
 0.178894	1.106262E-05
 0.173889	8.932495E-06
 0.168884	6.698608E-06
 0.163879	4.399414E-06
 0.158875	1.993713E-06
 0.153870	-4.995728E-07
 0.148895	-3.092651E-06
 0.143890	-5.780029E-06
 0.138885	-8.544922E-06
 0.133881	-1.139832E-05
 0.128876	-1.434021E-05
 0.123901	-1.736755E-05
 0.118896	-2.046814E-05
 0.113892	-2.365417E-05
 0.108887	-2.690430E-05
 0.103882	-3.022766E-05
 0.098907	-3.363037E-05
 0.093903	-3.709106E-05
 0.088898	-4.061890E-05
 0.083923	-4.420471E-05
 0.078918	-4.784546E-05
 0.073914	-5.157471E-05
 0.068909	-5.532837E-05
 0.063904	-5.911255E-05
 0.058899	-6.295776E-05
 0.053894	-6.683350E-05
 0.048895	-7.073975E-05
 0.043887	-7.470703E-05
 0.038889	-7.867432E-05
 0.033887	-8.267212E-05
 0.028888	-8.670044E-05
 0.023889	-9.075928E-05
 0.018887	-9.484863E-05
 0.013885	-9.896851E-05
 0.008881	-1.030884E-04
 0.003888	-1.072083E-04
 -0.001114	-1.113586E-04
 -0.006113	-1.154785E-04
 -0.011111	-1.196594E-04
 -0.016116	-1.238403E-04
 -0.021112	-1.280212E-04
 -0.026117	-1.322021E-04
 -0.031116	-1.363525E-04
 -0.036111	-1.405334E-04
 -0.041116	-1.446838E-04
 -0.046115	-1.488342E-04
 -0.051086	-1.529846E-04
 -0.056061	-1.571045E-04
 -0.061066	-1.612244E-04
 -0.066071	-1.653137E-04
 -0.071075	-1.693726E-04
 -0.076080	-1.734009E-04
 -0.081055	-1.773987E-04
 -0.086060	-1.813660E-04
 -0.091064	-1.853027E-04
 -0.096069	-1.892090E-04
 -0.101074	-1.930237E-04
 -0.106079	-1.968079E-04
 -0.111053	-2.005310E-04
 -0.116058	-2.041931E-04
 -0.121063	-2.077637E-04
 -0.126068	-2.112732E-04
 -0.131073	-2.146606E-04
 -0.136047	-2.179871E-04
 -0.141052	-2.211914E-04
 -0.146057	-2.242432E-04
 -0.151062	-2.271729E-04
 -0.156067	-2.299805E-04
 -0.161072	-2.326050E-04
 -0.166046	-2.350159E-04
 -0.171051	-2.372742E-04
 -0.176056	-2.392578E-04
 -0.181061	-2.410278E-04
 -0.186066	-2.424927E-04
 -0.191071	-2.436829E-04
 -0.196045	-2.445374E-04
 -0.201050	-2.450256E-04
 -0.206055	-2.451477E-04
 -0.211060	-2.449036E-04
 -0.216034	-2.442017E-04
 -0.221039	-2.431030E-04
 -0.226044	-2.415771E-04
 -0.231049	-2.396240E-04
 -0.236053	-2.372437E-04
 -0.241058	-2.344971E-04
 -0.246033	-2.314453E-04
 -0.251038	-2.280884E-04
 -0.256042	-2.245483E-04
 -0.261047	-2.208252E-04
 -0.266022	-2.170715E-04
 -0.271027	-2.132568E-04
 -0.276031	-2.095032E-04
 -0.281036	-2.058105E-04
 -0.286041	-2.022095E-04
 -0.291046	-1.987305E-04
 -0.296051	-1.954041E-04
 -0.296844	-1.901550E-04
 -0.291870	-1.761475E-04
 -0.286865	-1.640320E-04
 -0.281860	-1.534119E-04
 -0.276855	-1.440430E-04
 -0.271881	-1.357422E-04
 -0.266876	-1.283569E-04
 -0.261871	-1.217346E-04
 -0.256897	-1.157837E-04
 -0.251892	-1.103821E-04
 -0.246887	-1.055298E-04
 -0.241913	-1.011047E-04
 -0.236908	-9.707642E-05
 -0.231903	-9.338379E-05
 -0.226898	-8.999634E-05
 -0.221924	-8.688354E-05
 -0.216919	-8.401489E-05
 -0.211945	-8.135986E-05
 -0.206940	-7.891846E-05
 -0.201935	-7.662964E-05
 -0.196960	-7.449341E-05
 -0.191956	-7.247925E-05
 -0.186951	-7.061768E-05
 -0.181976	-6.884766E-05
 -0.176971	-6.719971E-05
 -0.171967	-6.561279E-05
 -0.166992	-6.411743E-05
 -0.161987	-6.268311E-05
 -0.156982	-6.130981E-05
 -0.152008	-5.996704E-05
 -0.147003	-5.868530E-05
 -0.141998	-5.743408E-05
 -0.137024	-5.624390E-05
 -0.132050	-5.502319E-05
 -0.127045	-5.386353E-05
 -0.122040	-5.267334E-05
 -0.117035	-5.151367E-05
 -0.112061	-5.029297E-05
 -0.107086	-4.905396E-05
 -0.102051	-4.781494E-05
 -0.097076	-4.654236E-05
 -0.092102	-4.521179E-05
 -0.087097	-4.382629E-05
 -0.082092	-4.238281E-05
 -0.077118	-4.086914E-05
 -0.072144	-3.927612E-05
 -0.067139	-3.759155E-05
 -0.062134	-3.581238E-05
 -0.057129	-3.392944E-05
 -0.052155	-3.194580E-05
 -0.047238	-2.985229E-05
 -0.042242	-2.763672E-05
 -0.037250	-2.532043E-05
 -0.032257	-2.288818E-05
 -0.027261	-2.034302E-05
 -0.022269	-1.769104E-05
 -0.017270	-1.492615E-05
 -0.012280	-1.206360E-05
 -0.007285	-9.100342E-06
 -0.002289	-6.021118E-06

 Potential	  Scan 4   
 0.002707	-2.901001E-06
 0.007715	3.549194E-07
 0.012692	3.650208E-06
 0.017685	7.049561E-06
 0.022675	1.052551E-05
 0.027670	1.406555E-05
 0.032666	1.766663E-05
 0.037659	2.133484E-05
 0.042651	2.505798E-05
 0.047647	2.882996E-05
 0.052673	3.265991E-05
 0.057678	3.654175E-05
 0.062653	4.046021E-05
 0.067657	4.441528E-05
 0.072662	4.841309E-05
 0.077667	5.242920E-05
 0.082642	5.648804E-05
 0.087646	6.060791E-05
 0.092621	6.472778E-05
 0.097626	6.887817E-05
 0.102631	7.305908E-05
 0.107635	7.727051E-05
 0.112610	8.145142E-05
 0.117584	8.569336E-05
 0.122589	8.993530E-05
 0.127594	9.417725E-05
 0.132568	9.844971E-05
 0.137573	1.027527E-04
 0.142548	1.070251E-04
 0.147552	1.112976E-04
 0.152527	1.156006E-04
 0.157532	1.198730E-04
 0.162537	1.241760E-04
 0.167511	1.284485E-04
 0.172516	1.327209E-04
 0.177490	1.370239E-04
 0.182495	1.412659E-04
 0.187500	1.455078E-04
 0.192474	1.497498E-04
 0.197479	1.539917E-04
 0.202454	1.581726E-04
 0.207458	1.623535E-04
 0.212433	1.665039E-04
 0.217438	1.706238E-04
 0.222412	1.747131E-04
 0.227417	1.787720E-04
 0.232422	1.828003E-04
 0.237396	1.867676E-04
 0.242401	1.907043E-04
 0.247375	1.946106E-04
 0.252380	1.984253E-04
 0.257385	2.021790E-04
 0.262360	2.058716E-04
 0.267365	2.094727E-04
 0.272339	2.130127E-04
 0.277344	2.164612E-04
 0.282318	2.197876E-04
 0.287323	2.230225E-04
 0.292297	2.261353E-04
 0.297302	2.291260E-04
 0.302307	2.319946E-04
 0.307281	2.346497E-04
 0.312286	2.371521E-04
 0.317291	2.395020E-04
 0.322266	2.416077E-04
 0.327271	2.434692E-04
 0.332245	2.451172E-04
 0.337219	2.464905E-04
 0.342224	2.475586E-04
 0.347229	2.482910E-04
 0.352203	2.486877E-04
 0.357208	2.487488E-04
 0.362183	2.484131E-04
 0.367188	2.476501E-04
 0.372162	2.464600E-04
 0.377167	2.448730E-04
 0.382172	2.428284E-04
 0.387146	2.404175E-04
 0.392151	2.376099E-04
 0.397125	2.344666E-04
 0.402130	2.310791E-04
 0.407104	2.274780E-04
 0.412109	2.237854E-04
 0.417084	2.200012E-04
 0.422089	2.162476E-04
 0.427094	2.124939E-04
 0.432068	2.088623E-04
 0.437073	2.053223E-04
 0.442078	2.019043E-04
 0.447052	1.986389E-04
 0.452057	1.954651E-04
 0.457031	1.924438E-04
 0.462036	1.895447E-04
 0.467010	1.867676E-04
 0.472015	1.841125E-04
 0.476990	1.815491E-04
 0.481995	1.791077E-04
 0.486969	1.767273E-04
 0.491974	1.744385E-04
 0.496979	1.722412E-04
 0.500793	1.700745E-04
 0.495361	1.588440E-04
 0.490356	1.490173E-04
 0.485352	1.406555E-04
 0.480347	1.333313E-04
 0.475342	1.268311E-04
 0.470337	1.210327E-04
 0.465332	1.157837E-04
 0.460327	1.110229E-04
 0.455322	1.066589E-04
 0.450348	1.026306E-04
 0.445343	9.893799E-05
 0.440338	9.548950E-05
 0.435303	9.228516E-05
 0.430328	8.926392E-05
 0.425323	8.645630E-05
 0.420319	8.380127E-05
 0.415314	8.126831E-05
 0.410309	7.888794E-05
 0.405304	7.662964E-05
 0.400330	7.449341E-05
 0.395325	7.241821E-05
 0.390320	7.046509E-05
 0.385315	6.857300E-05
 0.380310	6.674194E-05
 0.375305	6.500244E-05
 0.370300	6.329346E-05
 0.365295	6.167603E-05
 0.360291	6.008911E-05
 0.355316	5.856323E-05
 0.350311	5.706787E-05
 0.345306	5.560303E-05
 0.340302	5.419922E-05
 0.335297	5.282593E-05
 0.330322	5.145264E-05
 0.325317	5.014038E-05
 0.320313	4.886780E-05
 0.315308	4.757690E-05
 0.310303	4.632263E-05
 0.305298	4.508362E-05
 0.300293	4.383850E-05
 0.295319	4.262085E-05
 0.290314	4.141235E-05
 0.285309	4.020386E-05
 0.280304	3.899841E-05
 0.275299	3.779297E-05
 0.270294	3.658447E-05
 0.265320	3.537292E-05
 0.260284	3.415527E-05
 0.255310	3.291626E-05
 0.250305	3.166199E-05
 0.245300	3.038025E-05
 0.240295	2.908630E-05
 0.235291	2.775574E-05
 0.230286	2.638855E-05
 0.225311	2.498169E-05
 0.220306	2.353821E-05
 0.215302	2.203674E-05
 0.210297	2.048035E-05
 0.205322	1.886902E-05
 0.200317	1.719666E-05
 0.195313	1.545105E-05
 0.190308	1.363220E-05
 0.185303	1.173401E-05
 0.180298	9.753418E-06
 0.175293	7.693481E-06
 0.170288	5.551147E-06
 0.165314	3.334045E-06
 0.160309	9.890747E-07
 0.155304	-1.426697E-06
 0.150299	-3.937988E-06
 0.145294	-6.558228E-06
 0.140320	-9.240723E-06
 0.135315	-1.203308E-05
 0.130310	-1.489563E-05
 0.125305	-1.785583E-05
 0.120300	-2.088928E-05
 0.115326	-2.400818E-05
 0.110321	-2.720337E-05
 0.105316	-3.047791E-05
 0.100342	-3.381653E-05
 0.095306	-3.722839E-05
 0.090332	-4.069824E-05
 0.085327	-4.423828E-05
 0.080322	-4.782715E-05
 0.075317	-5.154419E-05
 0.070313	-5.523682E-05
 0.065338	-5.899048E-05
 0.060333	-6.280518E-05
 0.055328	-6.665039E-05
 0.050323	-7.052612E-05
 0.045316	-7.443237E-05
 0.040311	-7.836914E-05
 0.035312	-8.236694E-05
 0.030313	-8.636475E-05
 0.025314	-9.042358E-05
 0.020313	-9.448242E-05
 0.015311	-9.857178E-05
 0.010312	-1.026611E-04
 0.005316	-1.067810E-04
 0.000311	-1.109314E-04
 -0.004672	-1.150513E-04
 -0.009680	-1.192017E-04
 -0.014679	-1.233826E-04
 -0.019681	-1.275635E-04
 -0.024689	-1.317139E-04
 -0.029678	-1.358948E-04
 -0.034689	-1.400757E-04
 -0.039688	-1.442261E-04
 -0.044690	-1.483765E-04
 -0.049652	-1.525269E-04
 -0.054626	-1.566467E-04
 -0.059631	-1.607361E-04
 -0.064636	-1.648560E-04
 -0.069641	-1.689148E-04
 -0.074646	-1.729736E-04
 -0.079620	-1.770020E-04
 -0.084625	-1.809998E-04
 -0.089630	-1.849365E-04
 -0.094635	-1.888733E-04
 -0.099640	-1.927490E-04
 -0.104645	-1.965332E-04
 -0.109650	-2.003174E-04
 -0.114624	-2.039795E-04
 -0.119629	-2.076111E-04
 -0.124634	-2.111511E-04
 -0.129639	-2.146301E-04
 -0.134644	-2.179871E-04
 -0.139648	-2.212524E-04
 -0.144623	-2.243958E-04
 -0.149628	-2.274170E-04
 -0.154633	-2.302856E-04
 -0.159607	-2.330322E-04
 -0.164612	-2.355652E-04
 -0.169617	-2.379150E-04
 -0.174622	-2.400513E-04
 -0.179626	-2.419739E-04
 -0.184601	-2.435913E-04
 -0.189636	-2.449646E-04
 -0.194611	-2.460327E-04
 -0.199615	-2.467346E-04
 -0.204620	-2.471008E-04
 -0.209625	-2.471008E-04
 -0.214600	-2.466736E-04
 -0.219604	-2.458191E-04
 -0.224609	-2.445679E-04
 -0.229614	-2.428589E-04
 -0.234589	-2.407532E-04
 -0.239594	-2.382202E-04
 -0.244598	-2.353821E-04
 -0.249603	-2.322083E-04
 -0.254608	-2.287598E-04
 -0.259583	-2.251587E-04
 -0.264587	-2.214355E-04
 -0.269623	-2.176514E-04
 -0.274597	-2.138367E-04
 -0.279602	-2.101135E-04
 -0.284607	-2.064209E-04
 -0.289581	-2.028809E-04
 -0.294586	-1.994629E-04
 -0.297974	-1.961670E-04
 -0.292999	-1.826477E-04
 -0.287994	-1.700134E-04
 -0.282990	-1.589966E-04
 -0.278015	-1.492920E-04
 -0.272980	-1.406555E-04
 -0.268005	-1.330566E-04
 -0.263031	-1.261902E-04
 -0.258026	-1.200256E-04
 -0.253021	-1.144714E-04
 -0.248047	-1.094360E-04
 -0.243042	-1.048889E-04
 -0.238037	-1.007385E-04
 -0.233032	-9.692383E-05
 -0.228058	-9.344482E-05
 -0.223053	-9.024048E-05
 -0.218048	-8.728027E-05
 -0.213074	-8.456421E-05
 -0.208069	-8.203125E-05
 -0.203064	-7.965088E-05
 -0.198090	-7.748413E-05
 -0.193085	-7.543945E-05
 -0.188110	-7.348633E-05
 -0.183105	-7.168579E-05
 -0.178101	-6.997681E-05
 -0.173096	-6.835938E-05
 -0.168121	-6.683350E-05
 -0.163116	-6.530762E-05
 -0.158112	-6.390381E-05
 -0.153137	-6.256104E-05
 -0.148132	-6.124878E-05
 -0.143158	-5.993652E-05
 -0.138153	-5.871582E-05
 -0.133179	-5.746460E-05
 -0.128174	-5.624390E-05
 -0.123169	-5.505371E-05
 -0.118164	-5.383301E-05
 -0.113190	-5.261230E-05
 -0.108185	-5.136108E-05
 -0.103210	-5.007935E-05
 -0.098236	-4.875488E-05
 -0.093231	-4.739685E-05
 -0.088226	-4.598694E-05
 -0.083252	-4.451599E-05
 -0.078247	-4.296875E-05
 -0.073242	-4.134216E-05
 -0.068268	-3.963013E-05
 -0.063263	-3.780212E-05
 -0.058258	-3.591003E-05
 -0.053284	-3.389282E-05
 -0.048370	-3.177185E-05
 -0.043375	-2.954102E-05
 -0.038376	-2.719421E-05
 -0.033386	-2.473145E-05
 -0.028387	-2.216187E-05
 -0.023392	-1.948547E-05
 -0.018399	-1.671143E-05
 -0.013409	-1.382751E-05
 -0.008408	-1.084595E-05
 -0.003403	-7.757568E-06

 Potential	  Scan 5   
 0.001587	-4.609375E-06
 0.006595	-1.355286E-06
 0.011566	1.963806E-06
 0.016559	5.377197E-06
 0.021555	8.868408E-06
 0.026541	1.242065E-05
 0.031540	1.602478E-05
 0.036533	1.969910E-05
 0.041528	2.343140E-05
 0.046521	2.721558E-05
 0.051575	3.105164E-05
 0.056549	3.493652E-05
 0.061554	3.885803E-05
 0.066528	4.282227E-05
 0.071533	4.682007E-05
 0.076538	5.087280E-05
 0.081512	5.493164E-05
 0.086517	5.902100E-05
 0.091492	6.317139E-05
 0.096497	6.732178E-05
 0.101501	7.150269E-05
 0.106476	7.568359E-05
 0.111481	7.992554E-05
 0.116455	8.413696E-05
 0.121460	8.837891E-05
 0.126465	9.265137E-05
 0.131470	9.692383E-05
 0.136444	1.011963E-04
 0.141418	1.054993E-04
 0.146423	1.097717E-04
 0.151398	1.140442E-04
 0.156403	1.183472E-04
 0.161407	1.226501E-04
 0.166382	1.269226E-04
 0.171387	1.312256E-04
 0.176361	1.354980E-04
 0.181366	1.397400E-04
 0.186340	1.439819E-04
 0.191345	1.482239E-04
 0.196350	1.524658E-04
 0.201324	1.566467E-04
 0.206329	1.608276E-04
 0.211304	1.649780E-04
 0.216309	1.691284E-04
 0.221313	1.731873E-04
 0.226288	1.772766E-04
 0.231293	1.812744E-04
 0.236267	1.852417E-04
 0.241272	1.891785E-04
 0.246246	1.930542E-04
 0.251251	1.968689E-04
 0.256256	2.006226E-04
 0.261230	2.043152E-04
 0.266235	2.079468E-04
 0.271240	2.114563E-04
 0.276215	2.149048E-04
 0.281189	2.182617E-04
 0.286194	2.214661E-04
 0.291168	2.245789E-04
 0.296173	2.275696E-04
 0.301178	2.304077E-04
 0.306152	2.330933E-04
 0.311157	2.355957E-04
 0.316162	2.378845E-04
 0.321136	2.399902E-04
 0.326141	2.418518E-04
 0.331116	2.434998E-04
 0.336121	2.448425E-04
 0.341095	2.458801E-04
 0.346100	2.466431E-04
 0.351105	2.470093E-04
 0.356079	2.470398E-04
 0.361084	2.466736E-04
 0.366058	2.458801E-04
 0.371063	2.446899E-04
 0.376038	2.430420E-04
 0.381042	2.409973E-04
 0.386017	2.385559E-04
 0.391022	2.357178E-04
 0.396027	2.325745E-04
 0.401001	2.291565E-04
 0.406006	2.255554E-04
 0.411011	2.218018E-04
 0.415985	2.180176E-04
 0.420959	2.142334E-04
 0.425964	2.105103E-04
 0.430939	2.068481E-04
 0.435944	2.033081E-04
 0.440948	1.998901E-04
 0.445923	1.965942E-04
 0.450928	1.934509E-04
 0.455933	1.903992E-04
 0.460907	1.875000E-04
 0.465912	1.846924E-04
 0.470886	1.820374E-04
 0.475891	1.794739E-04
 0.480865	1.770020E-04
 0.485870	1.746216E-04
 0.490845	1.723328E-04
 0.495850	1.701050E-04
 0.501099	1.679382E-04
 0.499054	1.611938E-04
 0.494049	1.504517E-04
 0.489044	1.415100E-04
 0.484039	1.337585E-04
 0.479034	1.269836E-04
 0.474030	1.209106E-04
 0.469025	1.154785E-04
 0.464050	1.105347E-04
 0.459045	1.060486E-04
 0.454041	1.019592E-04
 0.449036	9.814453E-05
 0.444031	9.463501E-05
 0.439026	9.136963E-05
 0.434021	8.831787E-05
 0.429016	8.544922E-05
 0.424011	8.276367E-05
 0.419006	8.023071E-05
 0.414001	7.781982E-05
 0.408997	7.553101E-05
 0.404022	7.336426E-05
 0.399017	7.128906E-05
 0.394012	6.930542E-05
 0.389008	6.744385E-05
 0.384003	6.561279E-05
 0.378998	6.384277E-05
 0.373993	6.216431E-05
 0.368988	6.054688E-05
 0.364014	5.895996E-05
 0.359009	5.740356E-05
 0.354004	5.593872E-05
 0.348999	5.447388E-05
 0.344025	5.307007E-05
 0.338989	5.169678E-05
 0.334015	5.035400E-05
 0.329010	4.906311E-05
 0.324005	4.776917E-05
 0.319031	4.650574E-05
 0.314026	4.524536E-05
 0.309021	4.401245E-05
 0.304016	4.279175E-05
 0.299011	4.158630E-05
 0.294006	4.039001E-05
 0.289001	3.919983E-05
 0.283997	3.801880E-05
 0.279022	3.683472E-05
 0.274017	3.565063E-05
 0.269012	3.446350E-05
 0.264008	3.327026E-05
 0.259003	3.206177E-05
 0.254028	3.084717E-05
 0.248993	2.961121E-05
 0.243988	2.835083E-05
 0.239014	2.706604E-05
 0.234009	2.575378E-05
 0.229004	2.441711E-05
 0.224030	2.301636E-05
 0.219025	2.157898E-05
 0.213989	2.009583E-05
 0.209015	1.855774E-05
 0.204010	1.696167E-05
 0.199005	1.529846E-05
 0.194031	1.356506E-05
 0.189026	1.176453E-05
 0.183990	9.878540E-06
 0.178986	7.913208E-06
 0.173981	5.871582E-06
 0.169006	3.746033E-06
 0.164001	1.517029E-06
 0.158997	-7.940674E-07
 0.153992	-3.206787E-06
 0.149017	-5.715942E-06
 0.144012	-8.303833E-06
 0.139008	-1.099243E-05
 0.134003	-1.376038E-05
 0.129028	-1.661682E-05
 0.124023	-1.956787E-05
 0.119019	-2.260742E-05
 0.114014	-2.571716E-05
 0.109009	-2.889709E-05
 0.104004	-3.216553E-05
 0.099030	-3.550110E-05
 0.094025	-3.890686E-05
 0.089020	-4.236145E-05
 0.084015	-4.590454E-05
 0.079041	-4.949646E-05
 0.074005	-5.319214E-05
 0.069031	-5.688477E-05
 0.064026	-6.063843E-05
 0.059021	-6.442261E-05
 0.054016	-6.826782E-05
 0.049011	-7.214355E-05
 0.044012	-7.604980E-05
 0.039011	-8.001709E-05
 0.034015	-8.398438E-05
 0.029007	-8.801270E-05
 0.024008	-9.204102E-05
 0.019009	-9.609985E-05
 0.014008	-1.001892E-04
 0.009003	-1.042786E-04
 0.004010	-1.083984E-04
 -0.000992	-1.125183E-04
 -0.005997	-1.166382E-04
 -0.010995	-1.208191E-04
 -0.015994	-1.250000E-04
 -0.020990	-1.291504E-04
 -0.025995	-1.333008E-04
 -0.030997	-1.374817E-04
 -0.035995	-1.416321E-04
 -0.040994	-1.458130E-04
 -0.045996	-1.499329E-04
 -0.050964	-1.540833E-04
 -0.055939	-1.582336E-04
 -0.060944	-1.623230E-04
 -0.065948	-1.664429E-04
 -0.070953	-1.705017E-04
 -0.075958	-1.745605E-04
 -0.080933	-1.785583E-04
 -0.085938	-1.825562E-04
 -0.090942	-1.864929E-04
 -0.095947	-1.904297E-04
 -0.100952	-1.942749E-04
 -0.105927	-1.980591E-04
 -0.110931	-2.018433E-04
 -0.115936	-2.055359E-04
 -0.120941	-2.091370E-04
 -0.125946	-2.126770E-04
 -0.130951	-2.161255E-04
 -0.135956	-2.194824E-04
 -0.140930	-2.227478E-04
 -0.145935	-2.258911E-04
 -0.150940	-2.289124E-04
 -0.155945	-2.317505E-04
 -0.160919	-2.344666E-04
 -0.165924	-2.369995E-04
 -0.170929	-2.393494E-04
 -0.175934	-2.414856E-04
 -0.180908	-2.433777E-04
 -0.185913	-2.449951E-04
 -0.190918	-2.463379E-04
 -0.195923	-2.474060E-04
 -0.200928	-2.481079E-04
 -0.205933	-2.484436E-04
 -0.210938	-2.484131E-04
 -0.215912	-2.479553E-04
 -0.220917	-2.471008E-04
 -0.225922	-2.458191E-04
 -0.230927	-2.441101E-04
 -0.235931	-2.419739E-04
 -0.240936	-2.394714E-04
 -0.245911	-2.365723E-04
 -0.250916	-2.333984E-04
 -0.255920	-2.299805E-04
 -0.260925	-2.263489E-04
 -0.265930	-2.225952E-04
 -0.270905	-2.188110E-04
 -0.275909	-2.150269E-04
 -0.280914	-2.112732E-04
 -0.285919	-2.076111E-04
 -0.290894	-2.040710E-04
 -0.295898	-2.006531E-04
 -0.296478	-1.949768E-04
 -0.291473	-1.809082E-04
 -0.286499	-1.687622E-04
 -0.281494	-1.581116E-04
 -0.276489	-1.487122E-04
 -0.271484	-1.403503E-04
 -0.266479	-1.329041E-04
 -0.261505	-1.262512E-04
 -0.256531	-1.202393E-04
 -0.251495	-1.148376E-04
 -0.246521	-1.099243E-04
 -0.241516	-1.054382E-04
 -0.236511	-1.013794E-04
 -0.231537	-9.765625E-05
 -0.226532	-9.423828E-05
 -0.221527	-9.109497E-05
 -0.216553	-8.819580E-05
 -0.211548	-8.551025E-05
 -0.206543	-8.300781E-05
 -0.201569	-8.068848E-05
 -0.196564	-7.852173E-05
 -0.191559	-7.647705E-05
 -0.186554	-7.458496E-05
 -0.181580	-7.278442E-05
 -0.176575	-7.107544E-05
 -0.171570	-6.945801E-05
 -0.166595	-6.790161E-05
 -0.161621	-6.643677E-05
 -0.156616	-6.503296E-05
 -0.151611	-6.365967E-05
 -0.146606	-6.234741E-05
 -0.141632	-6.103516E-05
 -0.136627	-5.978394E-05
 -0.131653	-5.853271E-05
 -0.126648	-5.728149E-05
 -0.121674	-5.606079E-05
 -0.116669	-5.480957E-05
 -0.111664	-5.355835E-05
 -0.106689	-5.230713E-05
 -0.101685	-5.099487E-05
 -0.096710	-4.961548E-05
 -0.091705	-4.821472E-05
 -0.086731	-4.676208E-05
 -0.081726	-4.523315E-05
 -0.076721	-4.363098E-05
 -0.071716	-4.194336E-05
 -0.066742	-4.017334E-05
 -0.061737	-3.830566E-05
 -0.056732	-3.632507E-05
 -0.051758	-3.424377E-05
 -0.046848	-3.205261E-05
 -0.041855	-2.974243E-05
 -0.036862	-2.733154E-05
 -0.031866	-2.481079E-05
 -0.026874	-2.217712E-05
 -0.021881	-1.943665E-05
 -0.016879	-1.659546E-05
 -0.011890	-1.365356E-05
 -0.006897	-1.062317E-05
 -0.001901	-7.492065E-06
