Date: 15-08-25
Time: 13:52:09 PM

Exp. Conditions:
Cyclic voltammetry
Start potential (V) = .0000
First vertex potential (V) = .5000
Second vertex potential (V) = -.3000
Step potential (V) = .00500
Scan rate (V/s) = .60010
Equilibration time (s) = 
Number of Data Points =  320 

 Potential	  Scan 1   
 0.002151	-1.003418E-05
 0.009750	-1.537781E-06
 0.014734	3.536377E-06
 0.019733	8.370972E-06
 0.024725	1.299744E-05
 0.029718	1.748047E-05
 0.034714	2.185364E-05
 0.039706	2.613831E-05
 0.044699	3.036499E-05
 0.049713	3.454895E-05
 0.054718	3.870850E-05
 0.059723	4.283752E-05
 0.064728	4.696655E-05
 0.069702	5.108643E-05
 0.074707	5.520630E-05
 0.079681	5.932617E-05
 0.084686	6.344604E-05
 0.089661	6.759644E-05
 0.094666	7.174683E-05
 0.099640	7.592773E-05
 0.104645	8.007813E-05
 0.109650	8.425903E-05
 0.114624	8.847046E-05
 0.119629	9.268188E-05
 0.124634	9.686279E-05
 0.129608	1.011047E-04
 0.134613	1.053467E-04
 0.139587	1.095886E-04
 0.144592	1.138306E-04
 0.149567	1.180725E-04
 0.154572	1.223145E-04
 0.159576	1.265564E-04
 0.164551	1.307983E-04
 0.169556	1.350403E-04
 0.174530	1.392822E-04
 0.179535	1.435242E-04
 0.184509	1.477356E-04
 0.189514	1.519470E-04
 0.194519	1.561584E-04
 0.199493	1.603394E-04
 0.204498	1.645203E-04
 0.209473	1.686707E-04
 0.214478	1.727905E-04
 0.219452	1.769104E-04
 0.224457	1.809692E-04
 0.229431	1.850281E-04
 0.234436	1.890259E-04
 0.239410	1.929932E-04
 0.244415	1.968994E-04
 0.249390	2.007751E-04
 0.254395	2.045898E-04
 0.259399	2.083740E-04
 0.264374	2.120667E-04
 0.269379	2.156982E-04
 0.274353	2.192688E-04
 0.279358	2.227173E-04
 0.284332	2.260742E-04
 0.289337	2.293396E-04
 0.294342	2.325134E-04
 0.299316	2.355347E-04
 0.304291	2.384338E-04
 0.309296	2.411804E-04
 0.314301	2.437744E-04
 0.319275	2.461853E-04
 0.324280	2.483826E-04
 0.329254	2.503662E-04
 0.334259	2.521057E-04
 0.339233	2.536011E-04
 0.344238	2.547913E-04
 0.349213	2.557068E-04
 0.354218	2.562561E-04
 0.359222	2.564697E-04
 0.364197	2.563171E-04
 0.369171	2.557373E-04
 0.374176	2.547302E-04
 0.379181	2.533264E-04
 0.384155	2.514954E-04
 0.389160	2.492371E-04
 0.394135	2.466125E-04
 0.399139	2.436523E-04
 0.404114	2.403870E-04
 0.409119	2.369080E-04
 0.414093	2.332764E-04
 0.419098	2.296143E-04
 0.424072	2.259216E-04
 0.429077	2.222900E-04
 0.434082	2.187805E-04
 0.439056	2.153625E-04
 0.444061	2.120667E-04
 0.449066	2.089233E-04
 0.454041	2.059021E-04
 0.459015	2.030334E-04
 0.464020	2.002869E-04
 0.469025	1.976624E-04
 0.473999	1.951599E-04
 0.478973	1.927490E-04
 0.483978	1.903992E-04
 0.488983	1.881714E-04
 0.493958	1.859741E-04
 0.498962	1.838379E-04
 0.500488	1.803284E-04
 0.495178	1.689453E-04
 0.490204	1.596985E-04
 0.485199	1.518250E-04
 0.480194	1.449280E-04
 0.475189	1.388245E-04
 0.470184	1.333618E-04
 0.465179	1.284180E-04
 0.460175	1.239014E-04
 0.455170	1.197815E-04
 0.450165	1.159668E-04
 0.445160	1.124573E-04
 0.440155	1.091919E-04
 0.435150	1.061401E-04
 0.430145	1.032715E-04
 0.425140	1.005859E-04
 0.420135	9.805298E-05
 0.415161	9.564209E-05
 0.410156	9.335327E-05
 0.405151	9.118652E-05
 0.400146	8.911133E-05
 0.395142	8.712769E-05
 0.390137	8.523560E-05
 0.385132	8.337402E-05
 0.380157	8.163452E-05
 0.375153	7.992554E-05
 0.370148	7.827759E-05
 0.365143	7.669067E-05
 0.360138	7.513428E-05
 0.355133	7.360840E-05
 0.350159	7.217407E-05
 0.345123	7.073975E-05
 0.340149	6.933594E-05
 0.335144	6.796265E-05
 0.330139	6.658936E-05
 0.325134	6.527710E-05
 0.320129	6.396484E-05
 0.315155	6.268311E-05
 0.310120	6.140137E-05
 0.305145	6.011963E-05
 0.300140	5.889893E-05
 0.295135	5.761719E-05
 0.290131	5.636597E-05
 0.285126	5.511475E-05
 0.280121	5.389404E-05
 0.275146	5.264282E-05
 0.270142	5.136108E-05
 0.265137	5.007935E-05
 0.260132	4.882202E-05
 0.255127	4.749756E-05
 0.250122	4.614563E-05
 0.245117	4.477234E-05
 0.240143	4.335022E-05
 0.235138	4.188843E-05
 0.230133	4.038696E-05
 0.225128	3.882446E-05
 0.220123	3.721619E-05
 0.215149	3.554382E-05
 0.210144	3.380127E-05
 0.205139	3.198853E-05
 0.200134	3.009644E-05
 0.195129	2.812500E-05
 0.190125	2.607422E-05
 0.185120	2.393799E-05
 0.180145	2.171936E-05
 0.175140	1.940613E-05
 0.170135	1.700134E-05
 0.165131	1.450500E-05
 0.160126	1.192932E-05
 0.155151	9.259033E-06
 0.150146	6.494141E-06
 0.145142	3.668823E-06
 0.140137	7.373047E-07
 0.135132	-2.273560E-06
 0.130127	-5.377197E-06
 0.125153	-8.551025E-06
 0.120148	-1.179810E-05
 0.115143	-1.510925E-05
 0.110138	-1.849060E-05
 0.105164	-2.193909E-05
 0.100159	-2.543945E-05
 0.095154	-2.900391E-05
 0.090149	-3.262329E-05
 0.085144	-3.629150E-05
 0.080139	-4.000549E-05
 0.075165	-4.376831E-05
 0.070160	-4.757080E-05
 0.065155	-5.145264E-05
 0.060150	-5.535889E-05
 0.055145	-5.926514E-05
 0.050140	-6.320190E-05
 0.045145	-6.719971E-05
 0.040146	-7.119751E-05
 0.035144	-7.522583E-05
 0.030145	-7.925415E-05
 0.025140	-8.331299E-05
 0.020142	-8.740234E-05
 0.015140	-9.149170E-05
 0.010144	-9.558105E-05
 0.005142	-9.967041E-05
 0.000143	-1.038208E-04
 -0.004843	-1.079102E-04
 -0.009854	-1.120300E-04
 -0.014856	-1.161499E-04
 -0.019861	-1.202698E-04
 -0.024857	-1.243591E-04
 -0.029858	-1.284485E-04
 -0.034860	-1.325378E-04
 -0.039859	-1.365967E-04
 -0.044861	-1.406250E-04
 -0.049805	-1.446533E-04
 -0.054810	-1.486511E-04
 -0.059814	-1.525879E-04
 -0.064819	-1.565247E-04
 -0.069824	-1.604004E-04
 -0.074829	-1.642456E-04
 -0.079803	-1.680603E-04
 -0.084808	-1.717834E-04
 -0.089813	-1.754761E-04
 -0.094788	-1.790771E-04
 -0.099792	-1.826172E-04
 -0.104797	-1.860657E-04
 -0.109802	-1.894531E-04
 -0.114807	-1.927185E-04
 -0.119812	-1.958313E-04
 -0.124786	-1.988525E-04
 -0.129822	-2.017517E-04
 -0.134796	-2.044678E-04
 -0.139801	-2.070007E-04
 -0.144806	-2.093506E-04
 -0.149780	-2.114868E-04
 -0.154785	-2.133789E-04
 -0.159790	-2.150269E-04
 -0.164795	-2.163696E-04
 -0.169800	-2.174072E-04
 -0.174805	-2.180481E-04
 -0.179779	-2.183533E-04
 -0.184784	-2.182007E-04
 -0.189789	-2.176514E-04
 -0.194794	-2.166443E-04
 -0.199799	-2.151489E-04
 -0.204803	-2.132263E-04
 -0.209778	-2.108154E-04
 -0.214783	-2.080078E-04
 -0.219788	-2.048340E-04
 -0.224792	-2.013855E-04
 -0.229797	-1.976929E-04
 -0.234802	-1.938782E-04
 -0.239777	-1.900024E-04
 -0.244781	-1.861267E-04
 -0.249786	-1.823120E-04
 -0.254791	-1.786194E-04
 -0.259796	-1.750488E-04
 -0.264801	-1.716309E-04
 -0.269775	-1.683655E-04
 -0.274780	-1.652832E-04
 -0.279785	-1.623840E-04
 -0.284790	-1.596375E-04
 -0.289764	-1.570435E-04
 -0.294769	-1.545715E-04
 -0.296539	-1.513062E-04
 -0.291534	-1.381226E-04
 -0.286530	-1.269226E-04
 -0.281555	-1.173401E-04
 -0.276550	-1.091003E-04
 -0.271576	-1.018677E-04
 -0.266571	-9.558105E-05
 -0.261566	-9.002686E-05
 -0.256592	-8.511353E-05
 -0.251587	-8.074951E-05
 -0.246582	-7.687378E-05
 -0.241608	-7.336426E-05
 -0.236603	-7.022095E-05
 -0.231598	-6.738281E-05
 -0.226593	-6.478882E-05
 -0.221619	-6.243896E-05
 -0.216614	-6.030273E-05
 -0.211609	-5.831909E-05
 -0.206635	-5.651855E-05
 -0.201660	-5.484009E-05
 -0.196655	-5.328369E-05
 -0.191650	-5.181885E-05
 -0.186646	-5.047607E-05
 -0.181641	-4.917603E-05
 -0.176666	-4.798584E-05
 -0.171661	-4.685364E-05
 -0.166687	-4.577637E-05
 -0.161682	-4.474792E-05
 -0.156708	-4.376831E-05
 -0.151703	-4.282837E-05
 -0.146729	-4.191589E-05
 -0.141724	-4.103088E-05
 -0.136719	-4.016113E-05
 -0.131744	-3.930969E-05
 -0.126740	-3.846130E-05
 -0.121765	-3.762207E-05
 -0.116760	-3.677673E-05
 -0.111755	-3.591919E-05
 -0.106781	-3.505249E-05
 -0.101776	-3.415833E-05
 -0.096802	-3.323364E-05
 -0.091797	-3.226929E-05
 -0.086792	-3.126831E-05
 -0.081818	-3.019714E-05
 -0.076843	-2.907410E-05
 -0.071838	-2.787476E-05
 -0.066864	-2.658997E-05
 -0.061859	-2.521362E-05
 -0.056854	-2.375183E-05
 -0.051880	-2.218018E-05
 -0.046954	-2.049866E-05
 -0.041959	-1.870117E-05
 -0.036966	-1.678162E-05
 -0.031970	-1.473999E-05
 -0.026981	-1.257935E-05
 -0.021991	-1.030579E-05
 -0.016995	-7.910156E-06
 -0.012000	-5.389404E-06
 -0.007013	-2.766724E-06
 -0.002020	-1.922607E-08

 Potential	  Scan 2   
 0.002972	2.817688E-06
 0.007990	5.795288E-06
 0.012964	8.813477E-06
 0.017960	1.195679E-05
 0.022952	1.517639E-05
 0.027948	1.848145E-05
 0.032941	2.185364E-05
 0.037933	2.531738E-05
 0.042923	2.883606E-05
 0.047919	3.242188E-05
 0.052948	3.607178E-05
 0.057953	3.977051E-05
 0.062927	4.352112E-05
 0.067932	4.732056E-05
 0.072906	5.114746E-05
 0.077911	5.505371E-05
 0.082916	5.899048E-05
 0.087891	6.292725E-05
 0.092896	6.695557E-05
 0.097870	7.098389E-05
 0.102875	7.504272E-05
 0.107880	7.910156E-05
 0.112854	8.322144E-05
 0.117828	8.734131E-05
 0.122833	9.149170E-05
 0.127838	9.561157E-05
 0.132813	9.979248E-05
 0.137817	1.039734E-04
 0.142792	1.081543E-04
 0.147797	1.123657E-04
 0.152802	1.165466E-04
 0.157776	1.207581E-04
 0.162781	1.249390E-04
 0.167755	1.291504E-04
 0.172760	1.333313E-04
 0.177734	1.375122E-04
 0.182739	1.416931E-04
 0.187714	1.458435E-04
 0.192719	1.499939E-04
 0.197723	1.541443E-04
 0.202698	1.582336E-04
 0.207703	1.623230E-04
 0.212677	1.663818E-04
 0.217682	1.704102E-04
 0.222656	1.743774E-04
 0.227661	1.783447E-04
 0.232666	1.822510E-04
 0.237640	1.861267E-04
 0.242615	1.899414E-04
 0.247620	1.936951E-04
 0.252625	1.973877E-04
 0.257599	2.010193E-04
 0.262604	2.045593E-04
 0.267578	2.080078E-04
 0.272583	2.113647E-04
 0.277557	2.146301E-04
 0.282562	2.178040E-04
 0.287537	2.208252E-04
 0.292542	2.237244E-04
 0.297546	2.264709E-04
 0.302521	2.290344E-04
 0.307526	2.314453E-04
 0.312500	2.336426E-04
 0.317505	2.356262E-04
 0.322479	2.373352E-04
 0.327484	2.388306E-04
 0.332458	2.399902E-04
 0.337463	2.408752E-04
 0.342468	2.413940E-04
 0.347443	2.415466E-04
 0.352448	2.413330E-04
 0.357452	2.406921E-04
 0.362396	2.396240E-04
 0.367401	2.381287E-04
 0.372406	2.361755E-04
 0.377380	2.337952E-04
 0.382385	2.310486E-04
 0.387390	2.279053E-04
 0.392365	2.245178E-04
 0.397369	2.208862E-04
 0.402344	2.171326E-04
 0.407349	2.133179E-04
 0.412323	2.095032E-04
 0.417297	2.057495E-04
 0.422302	2.021179E-04
 0.427307	1.985779E-04
 0.432281	1.951904E-04
 0.437286	1.919556E-04
 0.442261	1.888428E-04
 0.447266	1.858826E-04
 0.452271	1.830750E-04
 0.457245	1.803894E-04
 0.462219	1.777954E-04
 0.467224	1.753235E-04
 0.472229	1.729736E-04
 0.477203	1.706848E-04
 0.482208	1.685181E-04
 0.487183	1.663818E-04
 0.492188	1.643372E-04
 0.497162	1.623535E-04
 0.498413	1.589966E-04
 0.493408	1.478882E-04
 0.488403	1.389771E-04
 0.483398	1.315002E-04
 0.478394	1.250000E-04
 0.473389	1.192932E-04
 0.468414	1.141968E-04
 0.463379	1.096191E-04
 0.458374	1.054993E-04
 0.453369	1.017151E-04
 0.448395	9.823608E-05
 0.443390	9.503174E-05
 0.438385	9.207153E-05
 0.433380	8.929443E-05
 0.428375	8.670044E-05
 0.423370	8.428955E-05
 0.418365	8.197021E-05
 0.413361	7.980347E-05
 0.408356	7.772827E-05
 0.403381	7.577515E-05
 0.398376	7.391357E-05
 0.393372	7.211304E-05
 0.388367	7.040405E-05
 0.383362	6.875610E-05
 0.378357	6.713867E-05
 0.373352	6.561279E-05
 0.368347	6.411743E-05
 0.363373	6.268311E-05
 0.358368	6.127930E-05
 0.353363	5.990601E-05
 0.348358	5.859375E-05
 0.343353	5.728149E-05
 0.338348	5.603027E-05
 0.333374	5.477905E-05
 0.328369	5.355835E-05
 0.323364	5.236816E-05
 0.318359	5.117798E-05
 0.313354	5.001831E-05
 0.308350	4.889832E-05
 0.303345	4.775696E-05
 0.298340	4.662781E-05
 0.293365	4.549866E-05
 0.288361	4.438171E-05
 0.283356	4.325562E-05
 0.278351	4.212952E-05
 0.273346	4.100037E-05
 0.268341	3.986816E-05
 0.263367	3.872070E-05
 0.258362	3.755493E-05
 0.253357	3.637390E-05
 0.248352	3.517151E-05
 0.243347	3.394165E-05
 0.238342	3.267517E-05
 0.233368	3.137512E-05
 0.228333	3.003235E-05
 0.223358	2.864075E-05
 0.218353	2.720642E-05
 0.213348	2.570190E-05
 0.208344	2.414856E-05
 0.203339	2.251892E-05
 0.198364	2.081909E-05
 0.193359	1.904907E-05
 0.188354	1.719360E-05
 0.183350	1.525879E-05
 0.178345	1.323242E-05
 0.173340	1.111450E-05
 0.168365	8.920288E-06
 0.163361	6.616211E-06
 0.158356	4.238586E-06
 0.153351	1.747437E-06
 0.148376	-8.251953E-07
 0.143372	-3.493042E-06
 0.138367	-6.265259E-06
 0.133362	-9.112549E-06
 0.128357	-1.205139E-05
 0.123352	-1.506958E-05
 0.118347	-1.816711E-05
 0.113373	-2.134399E-05
 0.108368	-2.459412E-05
 0.103363	-2.791443E-05
 0.098358	-3.130188E-05
 0.093384	-3.475647E-05
 0.088379	-3.826904E-05
 0.083374	-4.183960E-05
 0.078369	-4.546509E-05
 0.073364	-4.913940E-05
 0.068359	-5.291748E-05
 0.063354	-5.667114E-05
 0.058350	-6.048584E-05
 0.053375	-6.436157E-05
 0.048355	-6.823730E-05
 0.043356	-7.214355E-05
 0.038354	-7.611084E-05
 0.033353	-8.007813E-05
 0.028354	-8.404541E-05
 0.023352	-8.807373E-05
 0.018347	-9.213257E-05
 0.013354	-9.616089E-05
 0.008362	-1.002502E-04
 0.003354	-1.043091E-04
 -0.001648	-1.083984E-04
 -0.006650	-1.124878E-04
 -0.011646	-1.166077E-04
 -0.016647	-1.206970E-04
 -0.021649	-1.247864E-04
 -0.026651	-1.288757E-04
 -0.031650	-1.329651E-04
 -0.036652	-1.370544E-04
 -0.041653	-1.411133E-04
 -0.046652	-1.451416E-04
 -0.051605	-1.491699E-04
 -0.056610	-1.531677E-04
 -0.061615	-1.571655E-04
 -0.066620	-1.611023E-04
 -0.071594	-1.650085E-04
 -0.076599	-1.688843E-04
 -0.081604	-1.726990E-04
 -0.086609	-1.764832E-04
 -0.091614	-1.802063E-04
 -0.096588	-1.838684E-04
 -0.101593	-1.874695E-04
 -0.106598	-1.910095E-04
 -0.111603	-1.944275E-04
 -0.116608	-1.977844E-04
 -0.121582	-2.010193E-04
 -0.126587	-2.041321E-04
 -0.131592	-2.071533E-04
 -0.136597	-2.099915E-04
 -0.141602	-2.126770E-04
 -0.146606	-2.152100E-04
 -0.151581	-2.175293E-04
 -0.156586	-2.196655E-04
 -0.161591	-2.215271E-04
 -0.166595	-2.231445E-04
 -0.171600	-2.244568E-04
 -0.176575	-2.254333E-04
 -0.181580	-2.261047E-04
 -0.186584	-2.263489E-04
 -0.191589	-2.262268E-04
 -0.196564	-2.256470E-04
 -0.201569	-2.246094E-04
 -0.206573	-2.231445E-04
 -0.211578	-2.212219E-04
 -0.216583	-2.188416E-04
 -0.221588	-2.160645E-04
 -0.226563	-2.128906E-04
 -0.231567	-2.094421E-04
 -0.236572	-2.057800E-04
 -0.241577	-2.019348E-04
 -0.246582	-1.980286E-04
 -0.251587	-1.941223E-04
 -0.256561	-1.902771E-04
 -0.261566	-1.864929E-04
 -0.266571	-1.828613E-04
 -0.271576	-1.793518E-04
 -0.276550	-1.760254E-04
 -0.281555	-1.728516E-04
 -0.286560	-1.698608E-04
 -0.291565	-1.670227E-04
 -0.296570	-1.643372E-04
 -0.296448	-1.586304E-04
 -0.291443	-1.456299E-04
 -0.286438	-1.346130E-04
 -0.281433	-1.251831E-04
 -0.276428	-1.170044E-04
 -0.271454	-1.098938E-04
 -0.266449	-1.036377E-04
 -0.261475	-9.814453E-05
 -0.256470	-9.326172E-05
 -0.251465	-8.892822E-05
 -0.246460	-8.502197E-05
 -0.241486	-8.154297E-05
 -0.236481	-7.836914E-05
 -0.231506	-7.553101E-05
 -0.226501	-7.293701E-05
 -0.221497	-7.055664E-05
 -0.216522	-6.838989E-05
 -0.211517	-6.637573E-05
 -0.206543	-6.451416E-05
 -0.201538	-6.280518E-05
 -0.196533	-6.118774E-05
 -0.191559	-5.972290E-05
 -0.186554	-5.828857E-05
 -0.181549	-5.697632E-05
 -0.176575	-5.572510E-05
 -0.171570	-5.453491E-05
 -0.166565	-5.340576E-05
 -0.161591	-5.230713E-05
 -0.156586	-5.126953E-05
 -0.151611	-5.026245E-05
 -0.146606	-4.925537E-05
 -0.141602	-4.830017E-05
 -0.136627	-4.736023E-05
 -0.131622	-4.642639E-05
 -0.126648	-4.549561E-05
 -0.121643	-4.457092E-05
 -0.116669	-4.363708E-05
 -0.111664	-4.267883E-05
 -0.106659	-4.170837E-05
 -0.101685	-4.070435E-05
 -0.096680	-3.966980E-05
 -0.091705	-3.858643E-05
 -0.086700	-3.744507E-05
 -0.081696	-3.624573E-05
 -0.076721	-3.497314E-05
 -0.071716	-3.362122E-05
 -0.066742	-3.217773E-05
 -0.061737	-3.064270E-05
 -0.056732	-2.900085E-05
 -0.051758	-2.726135E-05
 -0.046841	-2.540588E-05
 -0.041843	-2.343445E-05
 -0.036856	-2.134705E-05
 -0.031863	-1.913452E-05
 -0.026871	-1.681213E-05
 -0.021872	-1.437073E-05
 -0.016879	-1.181030E-05
 -0.011890	-9.149170E-06
 -0.006894	-6.378174E-06
 -0.001904	-3.502502E-06

 Potential	  Scan 3   
 0.003085	-5.288696E-07
 0.008096	2.569275E-06
 0.013080	5.706787E-06
 0.018076	8.947754E-06
 0.023065	1.227722E-05
 0.028061	1.567383E-05
 0.033051	1.914368E-05
 0.038043	2.268066E-05
 0.043036	2.628174E-05
 0.048029	2.994080E-05
 0.053070	3.365173E-05
 0.058044	3.742371E-05
 0.063049	4.122925E-05
 0.068054	4.508972E-05
 0.073029	4.898376E-05
 0.078033	5.291748E-05
 0.083008	5.688477E-05
 0.087982	6.088257E-05
 0.092987	6.494141E-05
 0.097992	6.900024E-05
 0.102966	7.308960E-05
 0.107971	7.717896E-05
 0.112946	8.129883E-05
 0.117950	8.544922E-05
 0.122955	8.959961E-05
 0.127930	9.378052E-05
 0.132935	9.796143E-05
 0.137909	1.021729E-04
 0.142914	1.063843E-04
 0.147888	1.105652E-04
 0.152893	1.147766E-04
 0.157867	1.189880E-04
 0.162872	1.231995E-04
 0.167847	1.273804E-04
 0.172852	1.315613E-04
 0.177856	1.357422E-04
 0.182831	1.399231E-04
 0.187836	1.440735E-04
 0.192841	1.482239E-04
 0.197815	1.523132E-04
 0.202820	1.564026E-04
 0.207794	1.604919E-04
 0.212799	1.645203E-04
 0.217773	1.685181E-04
 0.222778	1.724854E-04
 0.227753	1.763916E-04
 0.232758	1.802673E-04
 0.237732	1.841125E-04
 0.242737	1.878662E-04
 0.247711	1.915588E-04
 0.252716	1.951904E-04
 0.257721	1.987610E-04
 0.262695	2.022400E-04
 0.267700	2.056274E-04
 0.272675	2.088928E-04
 0.277679	2.120667E-04
 0.282654	2.151184E-04
 0.287659	2.180481E-04
 0.292633	2.207947E-04
 0.297638	2.234192E-04
 0.302643	2.258301E-04
 0.307617	2.280579E-04
 0.312622	2.300720E-04
 0.317596	2.318420E-04
 0.322601	2.333374E-04
 0.327606	2.345886E-04
 0.332581	2.354736E-04
 0.337555	2.360535E-04
 0.342560	2.362671E-04
 0.347565	2.361145E-04
 0.352539	2.355042E-04
 0.357544	2.344971E-04
 0.362518	2.330322E-04
 0.367523	2.311401E-04
 0.372498	2.287903E-04
 0.377502	2.260742E-04
 0.382477	2.229614E-04
 0.387482	2.195740E-04
 0.392456	2.159424E-04
 0.397461	2.121887E-04
 0.402466	2.083435E-04
 0.407440	2.045288E-04
 0.412445	2.007446E-04
 0.417419	1.970520E-04
 0.422424	1.935120E-04
 0.427399	1.900940E-04
 0.432373	1.867981E-04
 0.437378	1.836548E-04
 0.442383	1.806641E-04
 0.447357	1.778259E-04
 0.452362	1.750793E-04
 0.457367	1.724548E-04
 0.462341	1.699524E-04
 0.467346	1.675720E-04
 0.472321	1.652832E-04
 0.477325	1.630554E-04
 0.482300	1.609192E-04
 0.487305	1.588440E-04
 0.492279	1.568298E-04
 0.497284	1.548767E-04
 0.502625	1.529541E-04
 0.498444	1.446533E-04
 0.493439	1.350098E-04
 0.488464	1.270447E-04
 0.483459	1.202698E-04
 0.478424	1.143799E-04
 0.473450	1.091919E-04
 0.468445	1.045227E-04
 0.463440	1.003723E-04
 0.458435	9.655762E-05
 0.453430	9.307861E-05
 0.448425	8.990479E-05
 0.443420	8.694458E-05
 0.438416	8.419800E-05
 0.433411	8.163452E-05
 0.428436	7.922363E-05
 0.423401	7.699585E-05
 0.418427	7.485962E-05
 0.413422	7.281494E-05
 0.408417	7.089233E-05
 0.403412	6.909180E-05
 0.398407	6.732178E-05
 0.393402	6.564331E-05
 0.388428	6.402588E-05
 0.383392	6.246948E-05
 0.378418	6.097412E-05
 0.373413	5.953979E-05
 0.368408	5.813599E-05
 0.363403	5.679321E-05
 0.358398	5.545044E-05
 0.353394	5.416870E-05
 0.348419	5.291748E-05
 0.343414	5.169678E-05
 0.338409	5.047607E-05
 0.333405	4.932861E-05
 0.328400	4.816895E-05
 0.323395	4.703369E-05
 0.318420	4.591064E-05
 0.313416	4.480591E-05
 0.308411	4.370728E-05
 0.303406	4.263000E-05
 0.298401	4.155273E-05
 0.293396	4.047852E-05
 0.288422	3.941345E-05
 0.283417	3.834534E-05
 0.278412	3.727722E-05
 0.273407	3.620605E-05
 0.268402	3.511963E-05
 0.263397	3.403320E-05
 0.258423	3.293152E-05
 0.253387	3.180542E-05
 0.248413	3.066406E-05
 0.243408	2.949829E-05
 0.238403	2.829895E-05
 0.233398	2.706604E-05
 0.228394	2.579651E-05
 0.223419	2.448730E-05
 0.218414	2.312317E-05
 0.213409	2.170105E-05
 0.208405	2.022400E-05
 0.203400	1.868896E-05
 0.198395	1.707764E-05
 0.193390	1.539307E-05
 0.188416	1.363220E-05
 0.183411	1.178894E-05
 0.178406	9.863281E-06
 0.173401	7.849121E-06
 0.168396	5.746460E-06
 0.163422	3.557129E-06
 0.158417	1.263428E-06
 0.153412	-1.126099E-06
 0.148407	-3.613892E-06
 0.143402	-6.201172E-06
 0.138397	-8.868408E-06
 0.133423	-1.163330E-05
 0.128418	-1.448059E-05
 0.123413	-1.742249E-05
 0.118408	-2.044067E-05
 0.113403	-2.354431E-05
 0.108429	-2.672119E-05
 0.103424	-2.997742E-05
 0.098419	-3.329773E-05
 0.093414	-3.669128E-05
 0.088409	-4.015198E-05
 0.083435	-4.366150E-05
 0.078430	-4.724121E-05
 0.073425	-5.090332E-05
 0.068420	-5.459595E-05
 0.063446	-5.831909E-05
 0.058411	-6.210327E-05
 0.053436	-6.588745E-05
 0.048419	-6.976318E-05
 0.043411	-7.363892E-05
 0.038416	-7.757568E-05
 0.033411	-8.151245E-05
 0.028418	-8.547974E-05
 0.023413	-8.947754E-05
 0.018411	-9.347534E-05
 0.013412	-9.753418E-05
 0.008420	-1.015625E-04
 0.003412	-1.056213E-04
 -0.001587	-1.097107E-04
 -0.006589	-1.138000E-04
 -0.011588	-1.178894E-04
 -0.016589	-1.219788E-04
 -0.021591	-1.260681E-04
 -0.026596	-1.301575E-04
 -0.031592	-1.342163E-04
 -0.036591	-1.383057E-04
 -0.041589	-1.423645E-04
 -0.046591	-1.464233E-04
 -0.051544	-1.504517E-04
 -0.056549	-1.544495E-04
 -0.061523	-1.584473E-04
 -0.066559	-1.623840E-04
 -0.071533	-1.663208E-04
 -0.076538	-1.702271E-04
 -0.081543	-1.740723E-04
 -0.086548	-1.778564E-04
 -0.091522	-1.816101E-04
 -0.096527	-1.853027E-04
 -0.101532	-1.889343E-04
 -0.106537	-1.925049E-04
 -0.111542	-1.959839E-04
 -0.116547	-1.993713E-04
 -0.121521	-2.026672E-04
 -0.126526	-2.058411E-04
 -0.131531	-2.089233E-04
 -0.136536	-2.118225E-04
 -0.141541	-2.146301E-04
 -0.146545	-2.172241E-04
 -0.151520	-2.196655E-04
 -0.156525	-2.219238E-04
 -0.161530	-2.239075E-04
 -0.166504	-2.256775E-04
 -0.171509	-2.271423E-04
 -0.176514	-2.283325E-04
 -0.181519	-2.291870E-04
 -0.186523	-2.296753E-04
 -0.191528	-2.297668E-04
 -0.196503	-2.294312E-04
 -0.201508	-2.286987E-04
 -0.206512	-2.274780E-04
 -0.211517	-2.258301E-04
 -0.216522	-2.237244E-04
 -0.221497	-2.211609E-04
 -0.226501	-2.182312E-04
 -0.231506	-2.149658E-04
 -0.236511	-2.113953E-04
 -0.241516	-2.076721E-04
 -0.246521	-2.037964E-04
 -0.251526	-1.998596E-04
 -0.256500	-1.959839E-04
 -0.261505	-1.921387E-04
 -0.266510	-1.884155E-04
 -0.271515	-1.848145E-04
 -0.276520	-1.813660E-04
 -0.281494	-1.780701E-04
 -0.286499	-1.749573E-04
 -0.291504	-1.720276E-04
 -0.296509	-1.692200E-04
 -0.297546	-1.647949E-04
 -0.292542	-1.514587E-04
 -0.287537	-1.401672E-04
 -0.282532	-1.305237E-04
 -0.277557	-1.221313E-04
 -0.272552	-1.148682E-04
 -0.267548	-1.084900E-04
 -0.262573	-1.028748E-04
 -0.257568	-9.790039E-05
 -0.252563	-9.344482E-05
 -0.247559	-8.947754E-05
 -0.242584	-8.590698E-05
 -0.237579	-8.267212E-05
 -0.232605	-7.977295E-05
 -0.227600	-7.711792E-05
 -0.222595	-7.467651E-05
 -0.217621	-7.244873E-05
 -0.212616	-7.040405E-05
 -0.207642	-6.851196E-05
 -0.202637	-6.674194E-05
 -0.197632	-6.509399E-05
 -0.192657	-6.356812E-05
 -0.187653	-6.210327E-05
 -0.182648	-6.076050E-05
 -0.177673	-5.944824E-05
 -0.172668	-5.822754E-05
 -0.167664	-5.706787E-05
 -0.162689	-5.593872E-05
 -0.157684	-5.487061E-05
 -0.152679	-5.383301E-05
 -0.147705	-5.282593E-05
 -0.142700	-5.181885E-05
 -0.137726	-5.084229E-05
 -0.132721	-4.985657E-05
 -0.127716	-4.889526E-05
 -0.122742	-4.792480E-05
 -0.117737	-4.695435E-05
 -0.112732	-4.596863E-05
 -0.107758	-4.495850E-05
 -0.102753	-4.391174E-05
 -0.097778	-4.283142E-05
 -0.092804	-4.170227E-05
 -0.087799	-4.052124E-05
 -0.082825	-3.927307E-05
 -0.077820	-3.795471E-05
 -0.072815	-3.655090E-05
 -0.067841	-3.505859E-05
 -0.062836	-3.347473E-05
 -0.057831	-3.178101E-05
 -0.052856	-2.998352E-05
 -0.047937	-2.807617E-05
 -0.042941	-2.605591E-05
 -0.037952	-2.391357E-05
 -0.032956	-2.165527E-05
 -0.027960	-1.928406E-05
 -0.022971	-1.679077E-05
 -0.017978	-1.419678E-05
 -0.012985	-1.149292E-05
 -0.007990	-8.682251E-06
 -0.002988	-5.743408E-06

 Potential	  Scan 4   
 0.001993	-2.763367E-06
 0.007004	3.485107E-07
 0.011981	3.531189E-06
 0.016977	6.811523E-06
 0.021970	1.015930E-05
 0.026962	1.358643E-05
 0.031958	1.707764E-05
 0.036951	2.063904E-05
 0.041940	2.425842E-05
 0.046936	2.793579E-05
 0.051971	3.166809E-05
 0.056946	3.545227E-05
 0.061951	3.928223E-05
 0.066956	4.315186E-05
 0.071930	4.706116E-05
 0.076935	5.099487E-05
 0.081909	5.499268E-05
 0.086914	5.899048E-05
 0.091888	6.304932E-05
 0.096893	6.713867E-05
 0.101898	7.122803E-05
 0.106873	7.531738E-05
 0.111877	7.946777E-05
 0.116852	8.361816E-05
 0.121857	8.776855E-05
 0.126831	9.194946E-05
 0.131836	9.613037E-05
 0.136841	1.003418E-04
 0.141815	1.045532E-04
 0.146820	1.087646E-04
 0.151794	1.129761E-04
 0.156799	1.171875E-04
 0.161774	1.213684E-04
 0.166779	1.255798E-04
 0.171783	1.297607E-04
 0.176758	1.339417E-04
 0.181732	1.381226E-04
 0.186737	1.422424E-04
 0.191742	1.463928E-04
 0.196716	1.505127E-04
 0.201721	1.545715E-04
 0.206726	1.586609E-04
 0.211700	1.626587E-04
 0.216705	1.666565E-04
 0.221680	1.706238E-04
 0.226654	1.745300E-04
 0.231659	1.784058E-04
 0.236664	1.822205E-04
 0.241638	1.859741E-04
 0.246643	1.896667E-04
 0.251617	1.932983E-04
 0.256622	1.968384E-04
 0.261597	2.002869E-04
 0.266602	2.036438E-04
 0.271606	2.069092E-04
 0.276581	2.100830E-04
 0.281555	2.131042E-04
 0.286560	2.159729E-04
 0.291565	2.187195E-04
 0.296539	2.212830E-04
 0.301544	2.236938E-04
 0.306519	2.258606E-04
 0.311523	2.278442E-04
 0.316528	2.295532E-04
 0.321503	2.310181E-04
 0.326508	2.321777E-04
 0.331482	2.330322E-04
 0.336487	2.335510E-04
 0.341461	2.336731E-04
 0.346466	2.334290E-04
 0.351440	2.327576E-04
 0.356445	2.316284E-04
 0.361420	2.300720E-04
 0.366425	2.280884E-04
 0.371429	2.256470E-04
 0.376404	2.228088E-04
 0.381409	2.196350E-04
 0.386383	2.161865E-04
 0.391357	2.125244E-04
 0.396362	2.087402E-04
 0.401367	2.048950E-04
 0.406342	2.010498E-04
 0.411346	1.972656E-04
 0.416321	1.936035E-04
 0.421326	1.900635E-04
 0.426300	1.866455E-04
 0.431305	1.833801E-04
 0.436310	1.802368E-04
 0.441284	1.772766E-04
 0.446259	1.744080E-04
 0.451263	1.716919E-04
 0.456268	1.690979E-04
 0.461243	1.665955E-04
 0.466248	1.641846E-04
 0.471222	1.618958E-04
 0.476227	1.596680E-04
 0.481232	1.575317E-04
 0.486206	1.554260E-04
 0.491180	1.534119E-04
 0.496185	1.514587E-04
 0.501404	1.495667E-04
 0.500488	1.437988E-04
 0.495087	1.335754E-04
 0.490082	1.252747E-04
 0.485077	1.182861E-04
 0.480072	1.122437E-04
 0.475067	1.069641E-04
 0.470062	1.022339E-04
 0.465057	9.802246E-05
 0.460052	9.417725E-05
 0.455048	9.069824E-05
 0.450043	8.749390E-05
 0.445068	8.456421E-05
 0.440063	8.178711E-05
 0.435028	7.922363E-05
 0.430023	7.684326E-05
 0.425049	7.458496E-05
 0.420044	7.247925E-05
 0.415039	7.046509E-05
 0.410034	6.854248E-05
 0.405029	6.674194E-05
 0.400024	6.500244E-05
 0.395050	6.332397E-05
 0.390045	6.170654E-05
 0.385040	6.018066E-05
 0.380035	5.871582E-05
 0.375031	5.725098E-05
 0.370026	5.587769E-05
 0.365021	5.453491E-05
 0.360016	5.325317E-05
 0.355042	5.197144E-05
 0.350037	5.072021E-05
 0.345032	4.953308E-05
 0.340027	4.834595E-05
 0.335022	4.717712E-05
 0.330017	4.603882E-05
 0.325012	4.491882E-05
 0.320038	4.381409E-05
 0.315033	4.272156E-05
 0.310028	4.164429E-05
 0.305023	4.057922E-05
 0.300018	3.952026E-05
 0.295013	3.846741E-05
 0.290039	3.742065E-05
 0.285034	3.637085E-05
 0.280029	3.532410E-05
 0.275024	3.427124E-05
 0.270020	3.321838E-05
 0.265015	3.215332E-05
 0.260010	3.107300E-05
 0.255035	2.998047E-05
 0.250031	2.886963E-05
 0.245026	2.773438E-05
 0.240021	2.656860E-05
 0.235016	2.537537E-05
 0.230011	2.414856E-05
 0.225037	2.288513E-05
 0.220032	2.156982E-05
 0.215027	2.020264E-05
 0.210022	1.878052E-05
 0.205017	1.730347E-05
 0.200043	1.575012E-05
 0.195038	1.413269E-05
 0.190033	1.243896E-05
 0.185028	1.066589E-05
 0.180023	8.813477E-06
 0.175018	6.869507E-06
 0.170013	4.830933E-06
 0.165009	2.719116E-06
 0.160034	5.001831E-07
 0.155029	-1.810913E-06
 0.150024	-4.223633E-06
 0.145020	-6.729126E-06
 0.140045	-9.329224E-06
 0.135040	-1.202393E-05
 0.130035	-1.480408E-05
 0.125031	-1.767578E-05
 0.120026	-2.063599E-05
 0.115021	-2.367554E-05
 0.110046	-2.679138E-05
 0.105042	-2.998962E-05
 0.100037	-3.326111E-05
 0.095032	-3.659668E-05
 0.090057	-4.000549E-05
 0.085052	-4.347229E-05
 0.080048	-4.700928E-05
 0.075043	-5.062866E-05
 0.070038	-5.429077E-05
 0.065063	-5.795288E-05
 0.060059	-6.170654E-05
 0.055054	-6.549072E-05
 0.050049	-6.930542E-05
 0.045038	-7.318115E-05
 0.040036	-7.705688E-05
 0.035037	-8.096313E-05
 0.030038	-8.493042E-05
 0.025040	-8.889771E-05
 0.020038	-9.289551E-05
 0.015036	-9.692383E-05
 0.010037	-1.009521E-04
 0.005042	-1.049805E-04
 0.000037	-1.090698E-04
 -0.004953	-1.131287E-04
 -0.009964	-1.172180E-04
 -0.014966	-1.213074E-04
 -0.019968	-1.253967E-04
 -0.024963	-1.294861E-04
 -0.029962	-1.335754E-04
 -0.034964	-1.376648E-04
 -0.039963	-1.417236E-04
 -0.044965	-1.457520E-04
 -0.049927	-1.498108E-04
 -0.054901	-1.538391E-04
 -0.059906	-1.578064E-04
 -0.064911	-1.618042E-04
 -0.069916	-1.657410E-04
 -0.074921	-1.696472E-04
 -0.079895	-1.735229E-04
 -0.084930	-1.773682E-04
 -0.089905	-1.811218E-04
 -0.094910	-1.848755E-04
 -0.099915	-1.885376E-04
 -0.104919	-1.921387E-04
 -0.109894	-1.956482E-04
 -0.114929	-1.990967E-04
 -0.119904	-2.024536E-04
 -0.124908	-2.057190E-04
 -0.129913	-2.088623E-04
 -0.134888	-2.118530E-04
 -0.139893	-2.147217E-04
 -0.144897	-2.174377E-04
 -0.149902	-2.200012E-04
 -0.154907	-2.223511E-04
 -0.159882	-2.245178E-04
 -0.164886	-2.264099E-04
 -0.169891	-2.280884E-04
 -0.174896	-2.294312E-04
 -0.179901	-2.304993E-04
 -0.184906	-2.312012E-04
 -0.189880	-2.315674E-04
 -0.194916	-2.315063E-04
 -0.199890	-2.310181E-04
 -0.204895	-2.301025E-04
 -0.209900	-2.287292E-04
 -0.214874	-2.268982E-04
 -0.219879	-2.246094E-04
 -0.224884	-2.219238E-04
 -0.229889	-2.188721E-04
 -0.234894	-2.154846E-04
 -0.239899	-2.118530E-04
 -0.244873	-2.080383E-04
 -0.249878	-2.041626E-04
 -0.254883	-2.002258E-04
 -0.259888	-1.963501E-04
 -0.264893	-1.925659E-04
 -0.269867	-1.888733E-04
 -0.274872	-1.853027E-04
 -0.279877	-1.819153E-04
 -0.284882	-1.786804E-04
 -0.289856	-1.756287E-04
 -0.294861	-1.727295E-04
 -0.297974	-1.699219E-04
 -0.292999	-1.568604E-04
 -0.287994	-1.451416E-04
 -0.282990	-1.351013E-04
 -0.278015	-1.264648E-04
 -0.273010	-1.189270E-04
 -0.268005	-1.123352E-04
 -0.263031	-1.065369E-04
 -0.258026	-1.014099E-04
 -0.253021	-9.683228E-05
 -0.248016	-9.274292E-05
 -0.243042	-8.908081E-05
 -0.238037	-8.575439E-05
 -0.233032	-8.276367E-05
 -0.228058	-8.001709E-05
 -0.223053	-7.754517E-05
 -0.218048	-7.522583E-05
 -0.213074	-7.312012E-05
 -0.208069	-7.119751E-05
 -0.203094	-6.936646E-05
 -0.198090	-6.768799E-05
 -0.193085	-6.610107E-05
 -0.188110	-6.463623E-05
 -0.183105	-6.323242E-05
 -0.178101	-6.188965E-05
 -0.173126	-6.063843E-05
 -0.168121	-5.944824E-05
 -0.163116	-5.828857E-05
 -0.158142	-5.718994E-05
 -0.153137	-5.612183E-05
 -0.148163	-5.505371E-05
 -0.143158	-5.404663E-05
 -0.138184	-5.303955E-05
 -0.133179	-5.203247E-05
 -0.128174	-5.105591E-05
 -0.123199	-5.004883E-05
 -0.118195	-4.903259E-05
 -0.113190	-4.801025E-05
 -0.108215	-4.696960E-05
 -0.103210	-4.588928E-05
 -0.098236	-4.477539E-05
 -0.093231	-4.361572E-05
 -0.088257	-4.239502E-05
 -0.083252	-4.110718E-05
 -0.078247	-3.975525E-05
 -0.073273	-3.831787E-05
 -0.068298	-3.678284E-05
 -0.063293	-3.515930E-05
 -0.058289	-3.342590E-05
 -0.053314	-3.159790E-05
 -0.048389	-2.964783E-05
 -0.043393	-2.758179E-05
 -0.038403	-2.540588E-05
 -0.033405	-2.312012E-05
 -0.028412	-2.070313E-05
 -0.023419	-1.818542E-05
 -0.018427	-1.555176E-05
 -0.013434	-1.281128E-05
 -0.008441	-9.967041E-06
 -0.003436	-7.009888E-06

 Potential	  Scan 5   
 0.001541	-4.002686E-06
 0.006555	-8.721924E-07
 0.011533	2.338562E-06
 0.016531	5.636597E-06
 0.021521	9.008789E-06
 0.026511	1.245728E-05
 0.031509	1.596680E-05
 0.036502	1.954041E-05
 0.041492	2.317810E-05
 0.046484	2.687073E-05
 0.051514	3.061218E-05
 0.056488	3.440552E-05
 0.061493	3.824768E-05
 0.066498	4.212341E-05
 0.071472	4.604797E-05
 0.076477	4.998779E-05
 0.081482	5.398560E-05
 0.086456	5.801392E-05
 0.091461	6.207275E-05
 0.096436	6.616211E-05
 0.101440	7.025146E-05
 0.106445	7.437134E-05
 0.111420	7.852173E-05
 0.116425	8.267212E-05
 0.121399	8.685303E-05
 0.126404	9.103394E-05
 0.131409	9.521484E-05
 0.136383	9.942627E-05
 0.141357	1.036377E-04
 0.146362	1.078186E-04
 0.151367	1.120300E-04
 0.156342	1.162415E-04
 0.161346	1.204529E-04
 0.166321	1.246338E-04
 0.171326	1.288452E-04
 0.176300	1.330261E-04
 0.181305	1.371765E-04
 0.186310	1.413269E-04
 0.191284	1.454773E-04
 0.196289	1.495667E-04
 0.201263	1.536560E-04
 0.206268	1.577148E-04
 0.211243	1.617432E-04
 0.216248	1.657104E-04
 0.221222	1.696777E-04
 0.226227	1.735840E-04
 0.231201	1.774292E-04
 0.236206	1.812439E-04
 0.241211	1.849670E-04
 0.246185	1.886597E-04
 0.251190	1.922913E-04
 0.256195	1.958008E-04
 0.261169	1.992493E-04
 0.266174	2.026062E-04
 0.271149	2.058411E-04
 0.276123	2.089844E-04
 0.281128	2.120056E-04
 0.286102	2.148743E-04
 0.291107	2.175598E-04
 0.296112	2.201233E-04
 0.301086	2.224731E-04
 0.306061	2.246094E-04
 0.311066	2.265625E-04
 0.316071	2.282410E-04
 0.321045	2.296448E-04
 0.326050	2.307739E-04
 0.331055	2.315674E-04
 0.336029	2.319946E-04
 0.341034	2.320862E-04
 0.346008	2.317505E-04
 0.351013	2.310181E-04
 0.356018	2.298279E-04
 0.360992	2.281799E-04
 0.365967	2.261047E-04
 0.370972	2.236023E-04
 0.375977	2.207031E-04
 0.380951	2.174683E-04
 0.385956	2.139587E-04
 0.390930	2.102661E-04
 0.395935	2.064514E-04
 0.400909	2.025757E-04
 0.405914	1.987610E-04
 0.410919	1.949768E-04
 0.415894	1.913147E-04
 0.420898	1.877747E-04
 0.425873	1.843872E-04
 0.430847	1.811218E-04
 0.435852	1.780090E-04
 0.440857	1.750183E-04
 0.445831	1.721802E-04
 0.450836	1.694946E-04
 0.455811	1.668701E-04
 0.460815	1.643982E-04
 0.465820	1.619873E-04
 0.470795	1.596985E-04
 0.475800	1.574707E-04
 0.480774	1.553040E-04
 0.485748	1.532288E-04
 0.490753	1.512146E-04
 0.495728	1.492615E-04
 0.501099	1.473389E-04
 0.500488	1.419373E-04
 0.494995	1.316223E-04
 0.489990	1.233215E-04
 0.484985	1.163330E-04
 0.479980	1.103210E-04
 0.474976	1.050110E-04
 0.469971	1.003418E-04
 0.464966	9.613037E-05
 0.459961	9.231567E-05
 0.454956	8.886719E-05
 0.449982	8.569336E-05
 0.444977	8.276367E-05
 0.439972	8.001709E-05
 0.434967	7.748413E-05
 0.429962	7.513428E-05
 0.424957	7.287598E-05
 0.419952	7.077026E-05
 0.414948	6.878662E-05
 0.409943	6.689453E-05
 0.404968	6.509399E-05
 0.399963	6.338501E-05
 0.394958	6.170654E-05
 0.389954	6.011963E-05
 0.384949	5.862427E-05
 0.379944	5.712891E-05
 0.374939	5.572510E-05
 0.369934	5.435181E-05
 0.364929	5.300903E-05
 0.359955	5.172729E-05
 0.354950	5.044556E-05
 0.349945	4.926453E-05
 0.344940	4.806213E-05
 0.339935	4.688416E-05
 0.334961	4.572449E-05
 0.329956	4.459534E-05
 0.324951	4.348450E-05
 0.319946	4.238892E-05
 0.314941	4.130554E-05
 0.309937	4.024048E-05
 0.304932	3.918152E-05
 0.299927	3.812866E-05
 0.294952	3.709106E-05
 0.289948	3.605347E-05
 0.284943	3.501587E-05
 0.279938	3.398132E-05
 0.274933	3.293457E-05
 0.269958	3.189087E-05
 0.264954	3.083801E-05
 0.259949	2.976379E-05
 0.254944	2.868958E-05
 0.249939	2.758789E-05
 0.244934	2.646484E-05
 0.239929	2.531128E-05
 0.234955	2.413635E-05
 0.229950	2.292175E-05
 0.224945	2.166443E-05
 0.219940	2.036743E-05
 0.214935	1.902161E-05
 0.209930	1.762085E-05
 0.204956	1.615601E-05
 0.199951	1.462097E-05
 0.194946	1.302795E-05
 0.189941	1.134949E-05
 0.184937	9.606934E-06
 0.179932	7.772827E-06
 0.174957	5.853271E-06
 0.169952	3.855286E-06
 0.164948	1.752625E-06
 0.159943	-4.428101E-07
 0.154968	-2.727661E-06
 0.149933	-5.120850E-06
 0.144958	-7.608032E-06
 0.139954	-1.017151E-05
 0.134949	-1.284180E-05
 0.129944	-1.561279E-05
 0.124939	-1.845703E-05
 0.119934	-2.139587E-05
 0.114960	-2.441711E-05
 0.109955	-2.751770E-05
 0.104950	-3.068542E-05
 0.099945	-3.394470E-05
 0.094971	-3.726807E-05
 0.089966	-4.065857E-05
 0.084961	-4.411621E-05
 0.079956	-4.762573E-05
 0.074982	-5.123901E-05
 0.069977	-5.487061E-05
 0.064972	-5.856323E-05
 0.059967	-6.228638E-05
 0.054962	-6.604004E-05
 0.049957	-6.988525E-05
 0.044952	-7.369995E-05
 0.039954	-7.757568E-05
 0.034955	-8.151245E-05
 0.029959	-8.544922E-05
 0.024954	-8.941650E-05
 0.019952	-9.341431E-05
 0.014954	-9.741211E-05
 0.009955	-1.014709E-04
 0.004956	-1.054688E-04
 -0.000046	-1.095581E-04
 -0.005035	-1.136169E-04
 -0.010046	-1.177063E-04
 -0.015048	-1.217957E-04
 -0.020047	-1.258850E-04
 -0.025049	-1.299744E-04
 -0.030045	-1.340332E-04
 -0.035049	-1.381226E-04
 -0.040051	-1.421814E-04
 -0.045050	-1.462402E-04
 -0.050018	-1.502991E-04
 -0.054993	-1.543274E-04
 -0.059998	-1.582947E-04
 -0.065002	-1.622925E-04
 -0.070007	-1.662292E-04
 -0.075012	-1.701660E-04
 -0.079987	-1.740112E-04
 -0.084991	-1.778564E-04
 -0.089996	-1.816406E-04
 -0.095001	-1.853943E-04
 -0.100006	-1.890564E-04
 -0.104980	-1.926880E-04
 -0.109985	-1.961975E-04
 -0.114990	-1.996765E-04
 -0.119995	-2.030334E-04
 -0.124969	-2.062988E-04
 -0.130005	-2.094421E-04
 -0.134979	-2.124634E-04
 -0.139984	-2.153931E-04
 -0.144989	-2.181091E-04
 -0.149963	-2.207031E-04
 -0.154968	-2.230835E-04
 -0.159973	-2.252808E-04
 -0.164978	-2.272339E-04
 -0.169983	-2.289429E-04
 -0.174957	-2.303467E-04
 -0.179962	-2.314453E-04
 -0.184967	-2.322388E-04
 -0.189972	-2.326355E-04
 -0.194977	-2.326355E-04
 -0.199982	-2.322388E-04
 -0.204956	-2.314148E-04
 -0.209961	-2.301025E-04
 -0.214966	-2.283630E-04
 -0.219971	-2.261658E-04
 -0.224976	-2.235413E-04
 -0.229950	-2.205505E-04
 -0.234955	-2.172241E-04
 -0.239960	-2.136230E-04
 -0.244965	-2.098389E-04
 -0.249969	-2.059631E-04
 -0.254974	-2.020264E-04
 -0.259949	-1.981201E-04
 -0.264954	-1.943054E-04
 -0.269958	-1.906128E-04
 -0.274963	-1.870117E-04
 -0.279968	-1.835938E-04
 -0.284943	-1.803284E-04
 -0.289948	-1.772461E-04
 -0.294952	-1.743164E-04
 -0.297333	-1.711426E-04
 -0.292358	-1.576538E-04
 -0.287354	-1.460571E-04
 -0.282349	-1.361084E-04
 -0.277374	-1.275330E-04
 -0.272369	-1.200562E-04
 -0.267365	-1.134949E-04
 -0.262390	-1.077271E-04
 -0.257385	-1.026306E-04
 -0.252380	-9.808350E-05
 -0.247406	-9.399414E-05
 -0.242401	-9.033203E-05
 -0.237396	-8.703613E-05
 -0.232422	-8.404541E-05
 -0.227417	-8.132935E-05
 -0.222443	-7.882690E-05
 -0.217438	-7.653809E-05
 -0.212433	-7.443237E-05
 -0.207458	-7.247925E-05
 -0.202454	-7.064819E-05
 -0.197449	-6.896973E-05
 -0.192474	-6.738281E-05
 -0.187469	-6.591797E-05
 -0.182465	-6.448364E-05
 -0.177490	-6.317139E-05
 -0.172485	-6.188965E-05
 -0.167480	-6.069946E-05
 -0.162506	-5.953979E-05
 -0.157501	-5.841064E-05
 -0.152496	-5.731201E-05
 -0.147522	-5.627441E-05
 -0.142517	-5.523682E-05
 -0.137543	-5.419922E-05
 -0.132568	-5.319214E-05
 -0.127563	-5.218506E-05
 -0.122559	-5.117798E-05
 -0.117554	-5.017090E-05
 -0.112579	-4.909363E-05
 -0.107574	-4.802551E-05
 -0.102600	-4.692383E-05
 -0.097595	-4.578247E-05
 -0.092621	-4.458923E-05
 -0.087616	-4.333191E-05
 -0.082642	-4.201660E-05
 -0.077637	-4.061890E-05
 -0.072632	-3.913879E-05
 -0.067657	-3.757019E-05
 -0.062653	-3.590698E-05
 -0.057648	-3.413086E-05
 -0.052673	-3.224792E-05
 -0.047757	-3.025208E-05
 -0.042761	-2.814331E-05
 -0.037769	-2.592163E-05
 -0.032773	-2.359924E-05
 -0.027777	-2.113647E-05
 -0.022784	-1.857910E-05
 -0.017795	-1.590271E-05
 -0.012799	-1.312866E-05
 -0.007809	-1.025085E-05
 -0.002808	-7.247925E-06
