Date: 15-08-25
Time: 13:55:27 PM

Exp. Conditions:
Cyclic voltammetry
Start potential (V) = .0000
First vertex potential (V) = .5000
Second vertex potential (V) = -.3000
Step potential (V) = .00500
Scan rate (V/s) = 1.00000
Equilibration time (s) = 
Number of Data Points =  321 

 Potential	  Scan 1   
 0.002167	-1.011353E-05
 0.009830	-1.262817E-06
 0.014804	4.118347E-06
 0.019809	9.326172E-06
 0.024799	1.434937E-05
 0.029794	1.923218E-05
 0.034784	2.400513E-05
 0.039755	2.867432E-05
 0.044778	3.330078E-05
 0.049744	3.785400E-05
 0.054810	4.236755E-05
 0.059814	4.684448E-05
 0.064819	5.130005E-05
 0.069794	5.572510E-05
 0.074738	6.015015E-05
 0.079773	6.457520E-05
 0.084778	6.900024E-05
 0.089752	7.339478E-05
 0.094757	7.781982E-05
 0.099731	8.224487E-05
 0.104706	8.663940E-05
 0.109741	9.109497E-05
 0.114716	9.552002E-05
 0.119720	9.997559E-05
 0.124695	1.044006E-04
 0.129700	1.088867E-04
 0.134644	1.133118E-04
 0.139679	1.178284E-04
 0.144684	1.222839E-04
 0.149658	1.267700E-04
 0.154663	1.312561E-04
 0.159607	1.357422E-04
 0.164642	1.402588E-04
 0.169617	1.447449E-04
 0.174622	1.492615E-04
 0.179596	1.537476E-04
 0.184570	1.582336E-04
 0.189606	1.627502E-04
 0.194580	1.672668E-04
 0.199585	1.717529E-04
 0.204559	1.762390E-04
 0.209534	1.807251E-04
 0.214539	1.852112E-04
 0.219543	1.896973E-04
 0.224548	1.941528E-04
 0.229523	1.986084E-04
 0.234528	2.030334E-04
 0.239502	2.074585E-04
 0.244507	2.118530E-04
 0.249481	2.162476E-04
 0.254486	2.206116E-04
 0.259460	2.249451E-04
 0.264465	2.292480E-04
 0.269440	2.335205E-04
 0.274445	2.377930E-04
 0.279419	2.420044E-04
 0.284424	2.461853E-04
 0.289398	2.503357E-04
 0.294373	2.544250E-04
 0.299377	2.584839E-04
 0.304382	2.624817E-04
 0.309357	2.664185E-04
 0.314362	2.702942E-04
 0.319336	2.740784E-04
 0.324371	2.778625E-04
 0.329346	2.815247E-04
 0.334351	2.850952E-04
 0.339325	2.886047E-04
 0.344299	2.919617E-04
 0.349304	2.952271E-04
 0.354279	2.984009E-04
 0.359283	3.014221E-04
 0.362244	9.966736E-03
 0.374451	5.798340E-07
 0.374268	3.101196E-04
 0.379242	3.123169E-04
 0.384247	3.145447E-04
 0.389221	3.164063E-04
 0.394226	3.179626E-04
 0.399200	1.176453E-04
 0.404205	3.207092E-04
 0.409180	3.216248E-04
 0.414185	3.222656E-04
 0.419189	3.226013E-04
 0.424133	3.226013E-04
 0.429169	3.222656E-04
 0.434143	3.215942E-04
 0.439148	3.205566E-04
 0.444153	3.192444E-04
 0.449127	3.175049E-04
 0.454102	3.154602E-04
 0.459076	3.131409E-04
 0.464081	3.105164E-04
 0.469086	3.076782E-04
 0.474091	3.046265E-04
 0.479065	3.014526E-04
 0.484070	2.981873E-04
 0.489014	2.948914E-04
 0.494049	2.915039E-04
 0.499023	2.882080E-04
 0.500488	2.834778E-04
 0.495270	2.697144E-04
 0.490265	2.575989E-04
 0.485260	2.466736E-04
 0.480255	2.367554E-04
 0.475250	2.276611E-04
 0.470245	2.192078E-04
 0.465302	2.113953E-04
 0.460266	2.040710E-04
 0.455261	1.972351E-04
 0.450256	1.907959E-04
 0.445251	1.847229E-04
 0.440277	1.790771E-04
 0.435242	1.736450E-04
 0.430267	1.684875E-04
 0.425262	1.636658E-04
 0.420258	1.590271E-04
 0.415253	1.546326E-04
 0.410278	1.504211E-04
 0.405273	1.464233E-04
 0.400269	1.425781E-04
 0.395264	1.389160E-04
 0.390259	1.353455E-04
 0.385254	1.319885E-04
 0.380310	1.287231E-04
 0.375275	1.255798E-04
 0.370270	1.225281E-04
 0.365295	1.195679E-04
 0.360260	1.167603E-04
 0.355286	1.140137E-04
 0.350281	1.113281E-04
 0.345276	1.087341E-04
 0.340302	1.062622E-04
 0.335297	1.037598E-04
 0.330292	1.013794E-04
 0.325287	9.906006E-05
 0.320282	9.674072E-05
 0.315308	9.451294E-05
 0.310303	9.225464E-05
 0.305298	9.008789E-05
 0.300323	8.792114E-05
 0.295288	8.581543E-05
 0.290283	8.367920E-05
 0.285309	8.160400E-05
 0.280304	7.949829E-05
 0.275330	7.742310E-05
 0.270325	7.531738E-05
 0.265320	7.321167E-05
 0.260315	7.110596E-05
 0.255310	6.900024E-05
 0.250305	6.683350E-05
 0.245331	6.466675E-05
 0.240356	6.243896E-05
 0.235321	6.018066E-05
 0.230316	5.786133E-05
 0.225342	5.554199E-05
 0.220337	5.316162E-05
 0.215363	5.072021E-05
 0.210358	4.825745E-05
 0.205353	4.570313E-05
 0.200348	4.308472E-05
 0.195343	4.038696E-05
 0.190369	3.760986E-05
 0.185364	3.478699E-05
 0.180389	5.123901E-06
 0.175354	2.873840E-05
 0.170380	2.569885E-05
 0.165375	2.260437E-05
 0.160370	1.941223E-05
 0.155365	1.615906E-05
 0.150360	1.284180E-05
 0.145386	9.469604E-06
 0.140381	6.024170E-06
 0.135406	2.546387E-06
 0.130371	-1.021423E-06
 0.125397	-4.638672E-06
 0.120392	-8.355713E-06
 0.115387	-1.209717E-05
 0.110382	-1.587219E-05
 0.105438	-1.968689E-05
 0.100403	-2.357483E-05
 0.095398	-2.749939E-05
 0.090424	-3.146667E-05
 0.085419	-3.546448E-05
 0.080414	-3.951111E-05
 0.075439	-4.358826E-05
 0.070435	-4.769592E-05
 0.065430	-5.187988E-05
 0.060425	-5.606079E-05
 0.055420	-6.027222E-05
 0.050446	-6.448364E-05
 0.045459	-6.872559E-05
 0.040436	-7.299805E-05
 0.035437	-7.730103E-05
 0.030438	-8.160400E-05
 0.025439	-8.593750E-05
 0.020444	-9.027100E-05
 0.015445	-9.460449E-05
 0.010471	-9.896851E-05
 0.005460	-1.033325E-04
 0.000455	-1.077271E-04
 -0.004529	-1.121216E-04
 -0.009543	-1.165161E-04
 -0.014539	-1.209106E-04
 -0.019513	-1.253052E-04
 -0.024533	-1.296997E-04
 -0.029532	-1.340942E-04
 -0.034528	-1.384888E-04
 -0.039532	-1.428833E-04
 -0.044525	-1.472473E-04
 -0.049469	-1.516113E-04
 -0.054474	-1.559753E-04
 -0.059448	-1.602783E-04
 -0.064484	-1.646423E-04
 -0.069489	-1.689453E-04
 -0.074463	-1.732178E-04
 -0.079468	-1.774902E-04
 -0.084473	-1.817322E-04
 -0.089417	-1.859131E-04
 -0.094452	-1.900940E-04
 -0.099457	-1.942749E-04
 -0.104462	-1.983643E-04
 -0.109467	-2.024231E-04
 -0.114441	-2.064209E-04
 -0.119415	-2.103577E-04
 -0.124451	-2.142639E-04
 -0.129456	-2.181091E-04
 -0.134430	-2.218628E-04
 -0.139435	-2.255554E-04
 -0.144440	-2.291870E-04
 -0.149414	-2.326965E-04
 -0.154419	-2.361145E-04
 -0.159393	-2.394104E-04
 -0.164429	-2.426147E-04
 -0.169403	-2.456665E-04
 -0.174408	-2.485657E-04
 -0.179413	-2.513123E-04
 -0.184418	-2.538757E-04
 -0.189423	-2.562561E-04
 -0.194397	-2.583923E-04
 -0.199402	-2.603149E-04
 -0.204376	-2.619934E-04
 -0.209381	-2.633667E-04
 -0.214386	-2.644348E-04
 -0.219391	-2.651978E-04
 -0.224365	-2.656250E-04
 -0.229370	-2.657166E-04
 -0.234375	-2.654114E-04
 -0.239380	-2.647400E-04
 -0.244354	-2.636719E-04
 -0.249359	-2.622681E-04
 -0.254364	-2.604675E-04
 -0.259338	-2.583618E-04
 -0.264374	-2.559509E-04
 -0.269379	-2.532349E-04
 -0.274353	-2.503052E-04
 -0.279358	-2.472229E-04
 -0.284363	-2.439880E-04
 -0.289307	-2.406616E-04
 -0.294342	-2.373047E-04
 -0.299133	-2.339172E-04
 -0.294556	-2.219238E-04
 -0.289551	-2.081299E-04
 -0.284546	-1.956177E-04
 -0.279541	-1.841736E-04
 -0.274597	-1.737366E-04
 -0.269562	-1.640930E-04
 -0.264587	-1.552429E-04
 -0.259583	-1.470642E-04
 -0.254578	-1.394958E-04
 -0.249573	-1.324768E-04
 -0.244598	-1.259766E-04
 -0.239594	-1.199036E-04
 -0.234619	-1.142578E-04
 -0.229614	-1.089783E-04
 -0.224609	-1.040955E-04
 -0.219604	-9.948730E-05
 -0.214630	-9.521484E-05
 -0.209625	-9.118652E-05
 -0.204651	-8.743286E-05
 -0.199646	-8.389282E-05
 -0.194672	-8.056641E-05
 -0.189667	-7.745361E-05
 -0.184692	-7.452393E-05
 -0.179688	-7.171631E-05
 -0.174683	-6.909180E-05
 -0.169708	-6.661987E-05
 -0.164673	-6.423950E-05
 -0.159698	-6.201172E-05
 -0.154724	-5.990601E-05
 -0.149719	-5.789185E-05
 -0.144714	-5.593872E-05
 -0.139740	-5.407715E-05
 -0.134735	-5.230713E-05
 -0.129791	-5.056763E-05
 -0.124756	-4.888306E-05
 -0.119751	-4.725647E-05
 -0.114777	-4.566956E-05
 -0.109772	-4.410095E-05
 -0.104797	-4.255676E-05
 -0.099823	-4.100647E-05
 -0.094818	-3.945618E-05
 -0.089813	-3.788452E-05
 -0.084839	-3.630066E-05
 -0.079834	-3.468323E-05
 -0.074860	-3.302002E-05
 -0.069855	-3.128662E-05
 -0.064880	-2.950134E-05
 -0.059875	-2.764282E-05
 -0.054871	-2.568359E-05
 -0.049896	-2.364807E-05
 -0.044983	-2.151184E-05
 -0.039990	-1.928101E-05
 -0.035001	-1.693726E-05
 -0.030005	-1.448669E-05
 -0.025034	-1.195068E-05
 -0.020016	-9.283447E-06
 -0.015027	-6.512451E-06
 -0.010028	-3.649597E-06
 -0.005035	-6.832886E-07
 -0.000052	2.384033E-06

 Potential	  Scan 2   
 0.004947	5.560303E-06
 0.009943	8.825684E-06
 0.014911	1.215515E-05
 0.019919	1.558838E-05
 0.024915	1.909485E-05
 0.029910	2.266846E-05
 0.034900	2.631531E-05
 0.039899	3.002319E-05
 0.044864	3.377991E-05
 0.049896	3.762817E-05
 0.054932	4.151001E-05
 0.059906	4.543762E-05
 0.064911	4.941711E-05
 0.069885	5.343628E-05
 0.074890	5.752563E-05
 0.079895	6.161499E-05
 0.084869	6.576538E-05
 0.089874	6.994629E-05
 0.094849	7.415771E-05
 0.099823	7.839966E-05
 0.104858	8.267212E-05
 0.109833	8.697510E-05
 0.114838	9.127808E-05
 0.119812	9.561157E-05
 0.124786	9.994507E-05
 0.129822	1.043396E-04
 0.134796	1.087341E-04
 0.139801	1.131287E-04
 0.144775	1.175537E-04
 0.149750	1.219482E-04
 0.154755	1.264038E-04
 0.159729	1.308594E-04
 0.164734	1.353149E-04
 0.169739	1.397705E-04
 0.174713	1.441956E-04
 0.179688	1.486511E-04
 0.184692	1.531372E-04
 0.189697	1.575928E-04
 0.194702	1.620483E-04
 0.199677	1.664734E-04
 0.204681	1.709290E-04
 0.209625	1.753540E-04
 0.214661	1.798096E-04
 0.219635	1.842041E-04
 0.224640	1.885986E-04
 0.229614	1.929932E-04
 0.234619	1.973572E-04
 0.239594	2.016907E-04
 0.244598	2.060242E-04
 0.249603	2.102966E-04
 0.254578	2.145691E-04
 0.259552	2.188110E-04
 0.264526	2.230225E-04
 0.269531	2.272034E-04
 0.274536	2.313232E-04
 0.279541	2.354126E-04
 0.284515	2.394409E-04
 0.289520	2.434082E-04
 0.294495	2.473450E-04
 0.299469	2.511902E-04
 0.304474	2.550354E-04
 0.309479	2.587280E-04
 0.314453	2.623901E-04
 0.319458	2.659607E-04
 0.324432	2.693787E-04
 0.329437	2.727966E-04
 0.334442	2.760315E-04
 0.339417	2.791443E-04
 0.344421	2.821350E-04
 0.349396	2.849731E-04
 0.354401	2.876587E-04
 0.359375	2.901917E-04
 0.364380	2.925110E-04
 0.369354	2.946167E-04
 0.374359	2.965088E-04
 0.379333	2.981567E-04
 0.384338	2.995911E-04
 0.389313	3.007202E-04
 0.390320	9.967651E-03
 0.404053	6.103516E-07
 0.404297	3.030090E-04
 0.409271	3.024902E-04
 0.414276	3.019714E-04
 0.419281	3.011475E-04
 0.424255	2.998047E-04
 0.429260	1.169434E-04
 0.434235	2.962646E-04
 0.439209	2.940063E-04
 0.444214	2.914124E-04
 0.449219	2.885742E-04
 0.454193	2.855225E-04
 0.459198	2.822876E-04
 0.464203	2.789001E-04
 0.469147	2.754822E-04
 0.474182	2.720337E-04
 0.479156	2.685852E-04
 0.484161	2.651672E-04
 0.489136	2.618103E-04
 0.494110	2.585754E-04
 0.499084	2.554321E-04
 0.500793	2.509155E-04
 0.495361	2.374878E-04
 0.490356	2.258911E-04
 0.485352	2.155151E-04
 0.480347	2.060852E-04
 0.475342	1.974792E-04
 0.470337	1.895447E-04
 0.465363	1.821899E-04
 0.460358	1.753540E-04
 0.455353	1.689453E-04
 0.450378	1.630249E-04
 0.445343	1.573792E-04
 0.440338	1.520996E-04
 0.435364	1.471252E-04
 0.430359	1.423950E-04
 0.425354	1.379395E-04
 0.420349	1.336975E-04
 0.415375	1.296997E-04
 0.410339	1.258545E-04
 0.405365	1.221924E-04
 0.400360	1.186829E-04
 0.395355	1.153564E-04
 0.390381	1.121826E-04
 0.385376	1.091003E-04
 0.380371	1.061401E-04
 0.375366	1.032715E-04
 0.370361	1.005859E-04
 0.365356	9.793091E-05
 0.360352	9.536743E-05
 0.355377	9.289551E-05
 0.350372	9.051514E-05
 0.345367	8.819580E-05
 0.340363	8.593750E-05
 0.335388	8.374023E-05
 0.330383	8.163452E-05
 0.325378	7.952881E-05
 0.320374	7.748413E-05
 0.315399	7.546997E-05
 0.310364	7.351685E-05
 0.305389	7.159424E-05
 0.300385	6.970215E-05
 0.295380	6.781006E-05
 0.290375	6.597900E-05
 0.285400	6.414795E-05
 0.280396	6.228638E-05
 0.275391	6.045532E-05
 0.270386	5.865479E-05
 0.265411	5.685425E-05
 0.260406	5.502319E-05
 0.255402	5.319214E-05
 0.250397	5.133057E-05
 0.245392	4.953613E-05
 0.240417	4.764099E-05
 0.235413	4.570313E-05
 0.230408	4.375000E-05
 0.225433	4.175720E-05
 0.220428	3.970337E-05
 0.215454	6.082153E-06
 0.210419	3.527222E-05
 0.205444	3.305969E-05
 0.200439	3.079224E-05
 0.195465	2.845764E-05
 0.190460	2.603149E-05
 0.185425	2.354736E-05
 0.180420	2.098999E-05
 0.175446	1.835938E-05
 0.170441	1.564331E-05
 0.165466	1.286316E-05
 0.160461	9.988403E-06
 0.155457	7.055664E-06
 0.150452	4.060059E-06
 0.145477	9.640503E-07
 0.140472	-2.200928E-06
 0.135468	-5.453491E-06
 0.130463	-8.776855E-06
 0.125488	-1.216125E-05
 0.120453	-1.560669E-05
 0.115479	-1.910400E-05
 0.110504	-2.266541E-05
 0.105499	-2.630920E-05
 0.100494	-2.999573E-05
 0.095490	-3.373108E-05
 0.090515	-3.753052E-05
 0.085541	-4.135132E-05
 0.080505	-4.525757E-05
 0.075531	-4.918518E-05
 0.070526	-5.322266E-05
 0.065521	-5.722046E-05
 0.060516	-6.127930E-05
 0.055542	-6.533813E-05
 0.050537	-6.945801E-05
 0.045526	-7.360840E-05
 0.040527	-7.778931E-05
 0.035526	-8.200073E-05
 0.030554	-8.621216E-05
 0.025534	-9.048462E-05
 0.020532	-9.472656E-05
 0.015536	-9.902954E-05
 0.010541	-1.033325E-04
 0.005551	-1.076355E-04
 0.000571	-1.119385E-04
 -0.004434	-1.163025E-04
 -0.009454	-1.206665E-04
 -0.014450	-1.250305E-04
 -0.019443	-1.293945E-04
 -0.024420	-1.337280E-04
 -0.029443	-1.381226E-04
 -0.034439	-1.424866E-04
 -0.039438	-1.468506E-04
 -0.044437	-1.512146E-04
 -0.049411	-1.555786E-04
 -0.054382	-1.599426E-04
 -0.059387	-1.642761E-04
 -0.064392	-1.686096E-04
 -0.069397	-1.729431E-04
 -0.074402	-1.772461E-04
 -0.079376	-1.815186E-04
 -0.084381	-1.857910E-04
 -0.089355	-1.900330E-04
 -0.094360	-1.942444E-04
 -0.099365	-1.984253E-04
 -0.104370	-2.026062E-04
 -0.109375	-2.067261E-04
 -0.114349	-2.107849E-04
 -0.119324	-2.148132E-04
 -0.124359	-2.188110E-04
 -0.129364	-2.227478E-04
 -0.134338	-2.266235E-04
 -0.139343	-2.304382E-04
 -0.144348	-2.341919E-04
 -0.149292	-2.378235E-04
 -0.154327	-2.414246E-04
 -0.159332	-2.449341E-04
 -0.164337	-2.483215E-04
 -0.169342	-2.515869E-04
 -0.174316	-2.547607E-04
 -0.179321	-2.577515E-04
 -0.184296	-2.606201E-04
 -0.189331	-2.633362E-04
 -0.194305	-2.658691E-04
 -0.199310	-2.681885E-04
 -0.204285	-2.703247E-04
 -0.209290	-2.721863E-04
 -0.214294	-2.738037E-04
 -0.219299	-2.751465E-04
 -0.224304	-2.762146E-04
 -0.229279	-2.769470E-04
 -0.234283	-2.773438E-04
 -0.239288	-2.773743E-04
 -0.244263	-2.770691E-04
 -0.249268	-2.763977E-04
 -0.254272	-2.753296E-04
 -0.259277	-2.739258E-04
 -0.264282	-2.721558E-04
 -0.269257	-2.700500E-04
 -0.274261	-2.676392E-04
 -0.279266	-2.649536E-04
 -0.284271	-2.620239E-04
 -0.289246	-2.589111E-04
 -0.294250	-2.556763E-04
 -0.298950	-2.523193E-04
 -0.294250	-2.400818E-04
 -0.289246	-2.261658E-04
 -0.284271	-2.135010E-04
 -0.279266	-2.019348E-04
 -0.274261	-1.912537E-04
 -0.269318	-1.814880E-04
 -0.264282	-1.723633E-04
 -0.259308	-1.639709E-04
 -0.254303	-1.561890E-04
 -0.249298	-1.489563E-04
 -0.244324	-1.422424E-04
 -0.239319	-1.359253E-04
 -0.234314	-1.300964E-04
 -0.229309	-1.246338E-04
 -0.224335	-1.195374E-04
 -0.219330	-1.147461E-04
 -0.214386	-1.102905E-04
 -0.209351	-1.060486E-04
 -0.204346	-1.021118E-04
 -0.199371	-9.838867E-05
 -0.194366	-9.487915E-05
 -0.189392	-9.158325E-05
 -0.184418	-8.847046E-05
 -0.179382	-8.551025E-05
 -0.174408	-8.273315E-05
 -0.169403	-8.004761E-05
 -0.164398	-7.754517E-05
 -0.159424	-7.513428E-05
 -0.154419	-7.284546E-05
 -0.149445	-7.064819E-05
 -0.144440	-6.854248E-05
 -0.139465	-6.649780E-05
 -0.134460	-6.451416E-05
 -0.129486	-6.259155E-05
 -0.124481	-6.072998E-05
 -0.119507	-5.889893E-05
 -0.114502	-5.709839E-05
 -0.109497	-5.529785E-05
 -0.104523	-5.352783E-05
 -0.099518	-5.172729E-05
 -0.094543	-4.995728E-05
 -0.089539	-4.810486E-05
 -0.084564	-4.624329E-05
 -0.079559	-4.433899E-05
 -0.074585	-4.238281E-05
 -0.069580	-4.035950E-05
 -0.064575	-3.826599E-05
 -0.059601	-3.610229E-05
 -0.054596	-3.384094E-05
 -0.049622	-3.149719E-05
 -0.044733	-2.906799E-05
 -0.039716	-2.651978E-05
 -0.034723	-2.388611E-05
 -0.029730	-2.115479E-05
 -0.024734	-1.831970E-05
 -0.019745	-1.538696E-05
 -0.014749	-1.236267E-05
 -0.009781	-9.265137E-06
 -0.004749	-6.051636E-06

 Potential	  Scan 3   
 0.000223	-2.770691E-06
 0.005219	5.969238E-07
 0.010208	4.048462E-06
 0.015186	7.574463E-06
 0.020197	1.118774E-05
 0.025195	1.485596E-05
 0.030188	1.858215E-05
 0.035175	2.236023E-05
 0.040167	2.620239E-05
 0.045139	3.007813E-05
 0.050171	3.403320E-05
 0.055176	3.802795E-05
 0.060181	4.206238E-05
 0.065186	4.613953E-05
 0.070160	5.023193E-05
 0.075165	5.441284E-05
 0.080170	5.856323E-05
 0.085144	6.280518E-05
 0.090149	6.704712E-05
 0.095123	7.131958E-05
 0.100128	7.562256E-05
 0.105103	7.992554E-05
 0.110107	8.428955E-05
 0.115112	8.865356E-05
 0.120087	9.301758E-05
 0.125092	9.741211E-05
 0.130096	1.018372E-04
 0.135040	1.062317E-04
 0.140076	1.106873E-04
 0.145050	1.151123E-04
 0.150024	1.195679E-04
 0.155029	1.240234E-04
 0.160034	1.285095E-04
 0.164978	1.329651E-04
 0.170013	1.374512E-04
 0.174988	1.419067E-04
 0.179993	1.463623E-04
 0.184967	1.508179E-04
 0.189972	1.553040E-04
 0.194946	1.597290E-04
 0.199921	1.641846E-04
 0.204956	1.686401E-04
 0.209930	1.730652E-04
 0.214935	1.774902E-04
 0.219910	1.818848E-04
 0.224884	1.862488E-04
 0.229889	1.906128E-04
 0.234894	1.949768E-04
 0.239868	1.992798E-04
 0.244873	2.035828E-04
 0.249878	2.078552E-04
 0.254822	2.120667E-04
 0.259827	2.162781E-04
 0.264832	2.204285E-04
 0.269806	2.245789E-04
 0.274811	2.286377E-04
 0.279785	2.326355E-04
 0.284790	2.366333E-04
 0.289795	2.405396E-04
 0.294769	2.443848E-04
 0.299774	2.481689E-04
 0.304749	2.518616E-04
 0.309723	2.554932E-04
 0.314728	2.590332E-04
 0.319733	2.624817E-04
 0.324738	2.658081E-04
 0.329712	2.690125E-04
 0.334686	2.720947E-04
 0.339691	2.750549E-04
 0.344696	2.778625E-04
 0.349670	2.804871E-04
 0.354675	2.829590E-04
 0.359650	2.852173E-04
 0.364655	2.872620E-04
 0.369629	2.890930E-04
 0.374634	2.906799E-04
 0.379608	2.919617E-04
 0.384613	2.930298E-04
 0.389587	2.937317E-04
 0.394592	2.941589E-04
 0.399597	2.942505E-04
 0.404572	2.939758E-04
 0.409546	2.933350E-04
 0.414551	2.923279E-04
 0.419556	2.909546E-04
 0.424530	2.892456E-04
 0.429535	2.871399E-04
 0.434509	2.847290E-04
 0.439514	2.820129E-04
 0.444489	2.790833E-04
 0.449493	2.758789E-04
 0.454468	2.725830E-04
 0.459473	2.691345E-04
 0.464447	2.656555E-04
 0.469452	2.621460E-04
 0.474426	2.586670E-04
 0.479431	2.552490E-04
 0.484436	2.518921E-04
 0.489410	2.486267E-04
 0.494385	2.454834E-04
 0.497864	2.424316E-04
 0.492828	2.297058E-04
 0.487823	2.178345E-04
 0.482819	2.073059E-04
 0.477814	1.977844E-04
 0.472839	1.891479E-04
 0.467834	1.811218E-04
 0.462799	1.737366E-04
 0.457825	1.669312E-04
 0.452820	1.605530E-04
 0.447845	1.546021E-04
 0.442841	1.490173E-04
 0.437836	1.437683E-04
 0.432831	1.388550E-04
 0.427826	1.341858E-04
 0.422821	1.297607E-04
 0.417847	1.256104E-04
 0.412842	1.216125E-04
 0.407837	1.178284E-04
 0.402832	1.142578E-04
 0.397827	1.108093E-04
 0.392853	1.075439E-04
 0.387848	1.044006E-04
 0.382843	1.013794E-04
 0.377838	9.851074E-05
 0.372833	9.570313E-05
 0.367828	9.304810E-05
 0.362823	9.045410E-05
 0.357849	8.795166E-05
 0.352844	8.557129E-05
 0.347839	8.322144E-05
 0.342865	8.096313E-05
 0.337860	7.876587E-05
 0.332855	7.662964E-05
 0.327850	7.455444E-05
 0.322845	7.250977E-05
 0.317871	7.052612E-05
 0.312897	6.860352E-05
 0.307831	6.668091E-05
 0.302856	6.478882E-05
 0.297852	6.295776E-05
 0.292877	6.112671E-05
 0.287903	5.932617E-05
 0.282867	5.752563E-05
 0.277863	5.575562E-05
 0.272888	5.401611E-05
 0.267883	5.224609E-05
 0.262878	5.047607E-05
 0.257904	4.876099E-05
 0.252930	4.699097E-05
 0.247894	4.519043E-05
 0.242889	4.338074E-05
 0.237885	4.154663E-05
 0.232910	3.968201E-05
 0.227936	3.778992E-05
 0.222900	3.584290E-05
 0.217896	3.386230E-05
 0.212921	3.183289E-05
 0.207916	2.973938E-05
 0.202911	2.759399E-05
 0.197937	2.539368E-05
 0.192932	2.310791E-05
 0.187927	2.077026E-05
 0.182922	1.835327E-05
 0.177948	1.586304E-05
 0.172943	1.330566E-05
 0.167938	1.064758E-05
 0.162933	7.928467E-06
 0.157928	5.130005E-06
 0.152954	2.266846E-06
 0.147980	-6.799316E-07
 0.142944	-3.728943E-06
 0.137939	-6.848145E-06
 0.132935	-1.003418E-05
 0.127960	-1.329651E-05
 0.122955	-1.663208E-05
 0.117981	-2.001648E-05
 0.112976	-2.349243E-05
 0.107971	-2.701416E-05
 0.102966	-3.060303E-05
 0.097992	-3.425293E-05
 0.092987	-3.795166E-05
 0.088013	-4.169617E-05
 0.083008	-4.552002E-05
 0.078003	-4.936829E-05
 0.072998	-5.334473E-05
 0.068024	-5.725098E-05
 0.063019	-6.124878E-05
 0.058014	-6.527710E-05
 0.053040	-6.933594E-05
 0.048013	-7.342529E-05
 0.043008	-7.757568E-05
 0.038016	-8.169556E-05
 0.033017	-8.590698E-05
 0.028021	-9.011841E-05
 0.023044	-9.432983E-05
 0.018021	-9.857178E-05
 0.013028	-1.028442E-04
 0.008044	-1.071472E-04
 0.003027	-1.114502E-04
 -0.001965	-1.157532E-04
 -0.006940	-1.200562E-04
 -0.011960	-1.244202E-04
 -0.016959	-1.287842E-04
 -0.021951	-1.331482E-04
 -0.026953	-1.374817E-04
 -0.031927	-1.418152E-04
 -0.036951	-1.462097E-04
 -0.041946	-1.505737E-04
 -0.046942	-1.549377E-04
 -0.051910	-1.592712E-04
 -0.056885	-1.636353E-04
 -0.061890	-1.679688E-04
 -0.066895	-1.723022E-04
 -0.071899	-1.766357E-04
 -0.076904	-1.809082E-04
 -0.081879	-1.852112E-04
 -0.086884	-1.894836E-04
 -0.091858	-1.937256E-04
 -0.096863	-1.979370E-04
 -0.101868	-2.021484E-04
 -0.106873	-2.062988E-04
 -0.111877	-2.104187E-04
 -0.116882	-2.145081E-04
 -0.121826	-2.185364E-04
 -0.126862	-2.225342E-04
 -0.131866	-2.264709E-04
 -0.136871	-2.303772E-04
 -0.141846	-2.341919E-04
 -0.146851	-2.379456E-04
 -0.151825	-2.416077E-04
 -0.156830	-2.452087E-04
 -0.161835	-2.487183E-04
 -0.166840	-2.521362E-04
 -0.171844	-2.554321E-04
 -0.176819	-2.586060E-04
 -0.181793	-2.616577E-04
 -0.186829	-2.645569E-04
 -0.191833	-2.673035E-04
 -0.196808	-2.698669E-04
 -0.201813	-2.722473E-04
 -0.206787	-2.744141E-04
 -0.211792	-2.763367E-04
 -0.216797	-2.780457E-04
 -0.221802	-2.794495E-04
 -0.226807	-2.805786E-04
 -0.231812	-2.813721E-04
 -0.236786	-2.818604E-04
 -0.241791	-2.820129E-04
 -0.246796	-2.817993E-04
 -0.251801	-2.812195E-04
 -0.256805	-2.802734E-04
 -0.261749	-2.789612E-04
 -0.266785	-2.772827E-04
 -0.271790	-2.752686E-04
 -0.276764	-2.729492E-04
 -0.281769	-2.703552E-04
 -0.286774	-2.675171E-04
 -0.291748	-2.644653E-04
 -0.296753	-2.612610E-04
 -0.296356	-2.543945E-04
 -0.291382	-2.398682E-04
 -0.286377	-2.266846E-04
 -0.281372	-2.145996E-04
 -0.276398	-2.034912E-04
 -0.271423	-1.932678E-04
 -0.266388	-1.837769E-04
 -0.261414	-1.749878E-04
 -0.256409	-1.668701E-04
 -0.251404	-1.593018E-04
 -0.246429	-1.522827E-04
 -0.241425	-1.457214E-04
 -0.236420	-1.395874E-04
 -0.231445	-1.338806E-04
 -0.226440	-1.285095E-04
 -0.221466	-1.235352E-04
 -0.216461	-1.188049E-04
 -0.211456	-1.144104E-04
 -0.206451	-1.102600E-04
 -0.201477	-1.063538E-04
 -0.196472	-1.026917E-04
 -0.191498	-9.924316E-05
 -0.186493	-9.594727E-05
 -0.181488	-9.283447E-05
 -0.176483	-8.990479E-05
 -0.171509	-8.709717E-05
 -0.166504	-8.447266E-05
 -0.161560	-8.193970E-05
 -0.156525	-7.949829E-05
 -0.151520	-7.717896E-05
 -0.146545	-7.495117E-05
 -0.141541	-7.278442E-05
 -0.136566	-7.070923E-05
 -0.131592	-6.869507E-05
 -0.126587	-6.674194E-05
 -0.121582	-6.478882E-05
 -0.116608	-6.286621E-05
 -0.111603	-6.097412E-05
 -0.106598	-5.908203E-05
 -0.101624	-5.718994E-05
 -0.096649	-5.529785E-05
 -0.091644	-5.337524E-05
 -0.086639	-5.142212E-05
 -0.081665	-4.939270E-05
 -0.076660	-4.732666E-05
 -0.071686	-4.520569E-05
 -0.066711	-4.302979E-05
 -0.061676	-4.075012E-05
 -0.056702	-3.840332E-05
 -0.051697	-3.596191E-05
 -0.046802	-3.343811E-05
 -0.041809	-3.081360E-05
 -0.036838	-2.810059E-05
 -0.031824	-2.527771E-05
 -0.026828	-2.237244E-05
 -0.021841	-1.937561E-05
 -0.016843	-1.628723E-05
 -0.011847	-1.310730E-05
 -0.006857	-9.851074E-06
 -0.001886	-6.509399E-06

 Potential	  Scan 4   
 0.003122	-3.097839E-06
 0.008121	4.180908E-07
 0.013107	3.963318E-06
 0.018106	7.614136E-06
 0.023099	1.131897E-05
 0.028067	1.506348E-05
 0.033087	1.889648E-05
 0.038077	2.277527E-05
 0.043073	2.668762E-05
 0.048059	3.065796E-05
 0.053101	3.467102E-05
 0.058075	3.872375E-05
 0.063080	4.281006E-05
 0.068085	4.696045E-05
 0.073059	5.111694E-05
 0.078064	5.532837E-05
 0.083069	5.957031E-05
 0.088043	6.384277E-05
 0.093048	6.811523E-05
 0.098022	7.241821E-05
 0.103027	7.678223E-05
 0.108032	8.111572E-05
 0.113007	8.547974E-05
 0.117981	8.987427E-05
 0.122986	9.423828E-05
 0.127991	9.869385E-05
 0.132965	1.031189E-04
 0.137970	1.075745E-04
 0.142944	1.119995E-04
 0.147949	1.164856E-04
 0.152924	1.209106E-04
 0.157928	1.253967E-04
 0.162933	1.298828E-04
 0.167908	1.343384E-04
 0.172882	1.388245E-04
 0.177856	1.432800E-04
 0.182892	1.477661E-04
 0.187897	1.522217E-04
 0.192871	1.566772E-04
 0.197876	1.611328E-04
 0.202850	1.655579E-04
 0.207825	1.699829E-04
 0.212830	1.744080E-04
 0.217834	1.788025E-04
 0.222809	1.831970E-04
 0.227814	1.875610E-04
 0.232788	1.918945E-04
 0.237793	1.962280E-04
 0.242767	2.005005E-04
 0.247772	2.047729E-04
 0.252777	2.089844E-04
 0.257751	2.131653E-04
 0.262726	2.173157E-04
 0.267731	2.214355E-04
 0.272705	2.255249E-04
 0.277710	2.295227E-04
 0.282715	2.334900E-04
 0.287689	2.373962E-04
 0.292664	2.412415E-04
 0.297668	2.449951E-04
 0.302673	2.487183E-04
 0.307617	2.522888E-04
 0.312653	2.558289E-04
 0.317657	2.592468E-04
 0.322632	2.625427E-04
 0.327637	2.657471E-04
 0.332581	2.687988E-04
 0.337616	2.717285E-04
 0.342590	2.745056E-04
 0.347595	2.770996E-04
 0.352570	2.795105E-04
 0.357574	2.817383E-04
 0.362518	2.837219E-04
 0.367554	2.855225E-04
 0.372528	2.870789E-04
 0.377533	2.882996E-04
 0.382538	2.893066E-04
 0.387512	2.899475E-04
 0.392487	2.902832E-04
 0.397491	2.902832E-04
 0.402466	2.899170E-04
 0.407471	2.892151E-04
 0.412476	2.881165E-04
 0.417450	2.866516E-04
 0.422424	2.848206E-04
 0.427429	2.826538E-04
 0.432434	2.801514E-04
 0.437408	2.773438E-04
 0.442413	2.743225E-04
 0.447388	2.710876E-04
 0.452393	2.677002E-04
 0.457367	2.642212E-04
 0.462372	2.607117E-04
 0.467377	2.572021E-04
 0.472351	2.536926E-04
 0.477325	2.503052E-04
 0.482330	2.469177E-04
 0.487305	2.436523E-04
 0.492310	2.405090E-04
 0.497314	2.374573E-04
 0.500793	2.344360E-04
 0.495392	2.216187E-04
 0.490356	2.099304E-04
 0.485352	1.996155E-04
 0.480347	1.902771E-04
 0.475342	1.817627E-04
 0.470367	1.739502E-04
 0.465363	1.667480E-04
 0.460358	1.600647E-04
 0.455353	1.538086E-04
 0.450348	1.480103E-04
 0.445343	1.425476E-04
 0.440338	1.374512E-04
 0.435364	1.326599E-04
 0.430359	1.280823E-04
 0.425354	1.238098E-04
 0.420349	1.197205E-04
 0.415344	1.158752E-04
 0.410400	1.122131E-04
 0.405365	1.087036E-04
 0.400360	1.053772E-04
 0.395355	1.021729E-04
 0.390381	9.915161E-05
 0.385376	9.622192E-05
 0.380402	9.341431E-05
 0.375366	9.069824E-05
 0.370361	8.810425E-05
 0.365356	8.560181E-05
 0.360352	8.319092E-05
 0.355377	8.084106E-05
 0.350403	7.858276E-05
 0.345367	7.638550E-05
 0.340393	7.424927E-05
 0.335388	7.217407E-05
 0.330383	7.019043E-05
 0.325378	6.820679E-05
 0.320404	6.628418E-05
 0.315430	6.439209E-05
 0.310394	6.256104E-05
 0.305389	6.072998E-05
 0.300385	5.895996E-05
 0.295380	5.718994E-05
 0.290405	5.545044E-05
 0.285431	5.377197E-05
 0.280396	5.203247E-05
 0.275391	5.035400E-05
 0.270416	4.868774E-05
 0.265411	4.700012E-05
 0.260437	4.532166E-05
 0.255432	4.361877E-05
 0.250427	4.190979E-05
 0.245422	4.019165E-05
 0.240417	3.844604E-05
 0.235413	3.666992E-05
 0.230438	3.487854E-05
 0.225433	3.303833E-05
 0.220428	3.115845E-05
 0.215454	2.923279E-05
 0.210449	2.726135E-05
 0.205444	2.522888E-05
 0.200439	2.314148E-05
 0.195465	2.100220E-05
 0.190460	1.876831E-05
 0.185425	1.648254E-05
 0.180450	1.412354E-05
 0.175446	1.168518E-05
 0.170471	9.182739E-06
 0.165466	6.573486E-06
 0.160461	3.919678E-06
 0.155457	1.159973E-06
 0.150482	-1.675415E-06
 0.145477	-4.590454E-06
 0.140472	-7.604980E-06
 0.135498	-1.066589E-05
 0.130493	-1.382141E-05
 0.125488	-1.704712E-05
 0.120483	-2.034302E-05
 0.115479	-2.370911E-05
 0.110504	-2.714233E-05
 0.105499	-3.063965E-05
 0.100494	-3.420105E-05
 0.095520	-3.781738E-05
 0.090546	-4.148560E-05
 0.085510	-4.523010E-05
 0.080536	-4.901123E-05
 0.075531	-5.288696E-05
 0.070526	-5.679321E-05
 0.065521	-6.072998E-05
 0.060547	-6.466675E-05
 0.055542	-6.869507E-05
 0.050537	-7.272339E-05
 0.045538	-7.681274E-05
 0.040540	-8.093262E-05
 0.035541	-8.505249E-05
 0.030563	-8.920288E-05
 0.025537	-9.341431E-05
 0.020547	-9.765625E-05
 0.015552	-1.018982E-04
 0.010550	-1.061401E-04
 0.005585	-1.103821E-04
 0.000558	-1.147156E-04
 -0.004425	-1.190186E-04
 -0.009439	-1.233521E-04
 -0.014438	-1.276855E-04
 -0.019440	-1.320190E-04
 -0.024408	-1.363525E-04
 -0.029431	-1.407166E-04
 -0.034430	-1.450806E-04
 -0.039426	-1.494446E-04
 -0.044424	-1.537781E-04
 -0.049420	-1.581421E-04
 -0.054352	-1.624756E-04
 -0.059387	-1.668396E-04
 -0.064392	-1.711731E-04
 -0.069366	-1.755066E-04
 -0.074371	-1.798096E-04
 -0.079376	-1.841125E-04
 -0.084381	-1.884155E-04
 -0.089355	-1.926575E-04
 -0.094360	-1.968994E-04
 -0.099365	-2.011108E-04
 -0.104370	-2.052917E-04
 -0.109344	-2.094421E-04
 -0.114319	-2.135315E-04
 -0.119354	-2.176514E-04
 -0.124329	-2.216797E-04
 -0.129364	-2.256775E-04
 -0.134338	-2.296143E-04
 -0.139313	-2.334900E-04
 -0.144318	-2.373047E-04
 -0.149323	-2.410583E-04
 -0.154327	-2.447205E-04
 -0.159332	-2.483215E-04
 -0.164307	-2.518005E-04
 -0.169312	-2.552490E-04
 -0.174316	-2.585144E-04
 -0.179291	-2.616882E-04
 -0.184296	-2.647400E-04
 -0.189301	-2.676392E-04
 -0.194305	-2.703552E-04
 -0.199280	-2.729187E-04
 -0.204285	-2.752991E-04
 -0.209290	-2.774658E-04
 -0.214294	-2.793884E-04
 -0.219269	-2.810669E-04
 -0.224274	-2.824707E-04
 -0.229279	-2.835999E-04
 -0.234283	-2.843933E-04
 -0.239258	-2.848816E-04
 -0.244263	-2.850037E-04
 -0.249268	-2.847900E-04
 -0.254272	-2.842407E-04
 -0.259277	-2.832947E-04
 -0.264282	-2.819824E-04
 -0.269257	-2.803345E-04
 -0.274231	-2.783508E-04
 -0.279266	-2.760315E-04
 -0.284241	-2.734375E-04
 -0.289246	-2.705994E-04
 -0.294250	-2.675476E-04
 -0.297211	-2.642517E-04
 -0.292206	-2.499695E-04
 -0.287231	-2.364197E-04
 -0.282227	-2.239380E-04
 -0.277222	-2.124939E-04
 -0.272247	-2.019348E-04
 -0.267242	-1.921997E-04
 -0.262268	-1.831665E-04
 -0.257263	-1.747437E-04
 -0.252258	-1.669006E-04
 -0.247253	-1.596375E-04
 -0.242249	-1.528625E-04
 -0.237274	-1.465454E-04
 -0.232269	-1.406250E-04
 -0.227295	-1.351013E-04
 -0.222290	-1.299133E-04
 -0.217285	-1.250305E-04
 -0.212311	-1.204529E-04
 -0.207306	-1.161499E-04
 -0.202332	-1.121216E-04
 -0.197296	-1.083069E-04
 -0.192322	-1.047058E-04
 -0.187347	-1.013184E-04
 -0.182343	-9.808350E-05
 -0.177338	-9.503174E-05
 -0.172363	-9.213257E-05
 -0.167358	-8.935547E-05
 -0.162384	-8.673096E-05
 -0.157349	-8.419800E-05
 -0.152374	-8.178711E-05
 -0.147400	-7.946777E-05
 -0.142395	-7.720947E-05
 -0.137421	-7.504272E-05
 -0.132416	-7.293701E-05
 -0.127411	-7.089233E-05
 -0.122406	-6.884766E-05
 -0.117462	-6.686401E-05
 -0.112457	-6.484985E-05
 -0.107452	-6.289673E-05
 -0.102478	-6.091309E-05
 -0.097473	-5.892944E-05
 -0.092499	-5.691528E-05
 -0.087494	-5.487061E-05
 -0.082520	-5.276489E-05
 -0.077515	-5.062866E-05
 -0.072510	-4.838867E-05
 -0.067566	-4.612427E-05
 -0.062531	-4.375610E-05
 -0.057526	-4.132080E-05
 -0.052551	-3.880615E-05
 -0.047647	-3.619385E-05
 -0.042651	-3.349915E-05
 -0.037665	-3.070679E-05
 -0.032669	-2.782288E-05
 -0.027698	-2.486267E-05
 -0.022681	-2.179260E-05
 -0.017691	-1.864624E-05
 -0.012695	-1.541443E-05
 -0.007706	-1.209717E-05
 -0.002704	-8.691406E-06

 Potential	  Scan 5   
 0.002283	-5.230713E-06
 0.007263	-1.716309E-06
 0.012259	1.885986E-06
 0.017261	5.566406E-06
 0.022253	9.310913E-06
 0.027246	1.311035E-05
 0.032217	1.694336E-05
 0.037225	2.085571E-05
 0.042224	2.480469E-05
 0.047214	2.879944E-05
 0.052277	3.283386E-05
 0.057251	3.691406E-05
 0.062225	4.102478E-05
 0.067261	4.518433E-05
 0.072235	4.937439E-05
 0.077209	5.358887E-05
 0.082214	5.783081E-05
 0.087189	6.210327E-05
 0.092194	6.640625E-05
 0.097168	7.070923E-05
 0.102173	7.507324E-05
 0.107178	7.943726E-05
 0.112152	8.383179E-05
 0.117157	8.822632E-05
 0.122131	9.262085E-05
 0.127136	9.704590E-05
 0.132141	1.015015E-04
 0.137115	1.059570E-04
 0.142120	1.104126E-04
 0.147095	1.148376E-04
 0.152100	1.193237E-04
 0.157074	1.238098E-04
 0.162079	1.282959E-04
 0.167053	1.327515E-04
 0.172058	1.372375E-04
 0.177063	1.416931E-04
 0.182007	1.461487E-04
 0.187042	1.506348E-04
 0.192017	1.550903E-04
 0.197021	1.595459E-04
 0.201996	1.640015E-04
 0.206970	1.683960E-04
 0.211975	1.728210E-04
 0.216980	1.772156E-04
 0.221954	1.816101E-04
 0.226959	1.859436E-04
 0.231934	1.903076E-04
 0.236908	1.946106E-04
 0.241913	1.988831E-04
 0.246918	2.031250E-04
 0.251923	2.073669E-04
 0.256897	2.115479E-04
 0.261902	2.156982E-04
 0.266846	2.197876E-04
 0.271881	2.238464E-04
 0.276855	2.278442E-04
 0.281860	2.318115E-04
 0.286835	2.356873E-04
 0.291809	2.395020E-04
 0.296814	2.432556E-04
 0.301819	2.469482E-04
 0.306793	2.505188E-04
 0.311798	2.540283E-04
 0.316803	2.574158E-04
 0.321777	2.606812E-04
 0.326752	2.638550E-04
 0.331757	2.669067E-04
 0.336761	2.697754E-04
 0.341736	2.724915E-04
 0.346741	2.750549E-04
 0.351715	2.774353E-04
 0.356689	2.796021E-04
 0.361694	2.815552E-04
 0.366699	2.832642E-04
 0.371674	2.847290E-04
 0.376678	2.859192E-04
 0.381683	2.868042E-04
 0.386627	2.874146E-04
 0.391663	2.876587E-04
 0.396637	2.875671E-04
 0.401611	2.871094E-04
 0.406616	2.862854E-04
 0.411621	2.850647E-04
 0.416595	2.835083E-04
 0.421570	2.815857E-04
 0.426605	2.792969E-04
 0.431580	2.767029E-04
 0.436554	2.738342E-04
 0.441559	2.707214E-04
 0.446533	2.674561E-04
 0.451538	2.640076E-04
 0.456543	2.604980E-04
 0.461517	2.569885E-04
 0.466522	2.534485E-04
 0.471497	2.499390E-04
 0.476501	2.465210E-04
 0.481476	2.431641E-04
 0.486481	2.398987E-04
 0.491455	2.367554E-04
 0.496460	2.337036E-04
 0.497681	2.292480E-04
 0.492706	2.161560E-04
 0.487671	2.047424E-04
 0.482697	1.946106E-04
 0.477692	1.854553E-04
 0.472687	1.770935E-04
 0.467712	1.694641E-04
 0.462677	1.623230E-04
 0.457672	1.557617E-04
 0.452698	1.496277E-04
 0.447693	1.439209E-04
 0.442688	1.385498E-04
 0.437714	1.335449E-04
 0.432678	1.287842E-04
 0.427673	1.243286E-04
 0.422699	1.200867E-04
 0.417694	1.160889E-04
 0.412720	1.123047E-04
 0.407684	1.087036E-04
 0.402679	1.052551E-04
 0.397705	1.019592E-04
 0.392700	9.884644E-05
 0.387695	9.582520E-05
 0.382690	9.295654E-05
 0.377716	9.020996E-05
 0.372681	8.752441E-05
 0.367676	8.499146E-05
 0.362701	8.251953E-05
 0.357697	8.013916E-05
 0.352692	7.781982E-05
 0.347717	7.559204E-05
 0.342743	7.345581E-05
 0.337708	7.135010E-05
 0.332703	6.930542E-05
 0.327698	6.729126E-05
 0.322723	6.536865E-05
 0.317719	6.347656E-05
 0.312714	6.161499E-05
 0.307709	5.978394E-05
 0.302734	5.798340E-05
 0.297729	5.621338E-05
 0.292725	5.447388E-05
 0.287720	5.276489E-05
 0.282715	5.105591E-05
 0.277740	4.940491E-05
 0.272766	4.773865E-05
 0.267731	4.605408E-05
 0.262756	4.437561E-05
 0.257751	4.269714E-05
 0.252747	4.100952E-05
 0.247772	3.931580E-05
 0.242737	3.759460E-05
 0.237762	3.586121E-05
 0.232758	3.409424E-05
 0.227753	3.229370E-05
 0.222778	3.046875E-05
 0.217773	2.857971E-05
 0.212769	2.665710E-05
 0.207764	2.468262E-05
 0.202789	2.265320E-05
 0.197784	2.055969E-05
 0.192780	1.840210E-05
 0.187775	1.617432E-05
 0.182770	1.388245E-05
 0.177795	1.152039E-05
 0.172791	9.069824E-06
 0.167786	6.536865E-06
 0.162811	3.957520E-06
 0.157806	1.267395E-06
 0.152832	-1.488037E-06
 0.147797	-4.341431E-06
 0.142792	-7.281494E-06
 0.137817	-1.028748E-05
 0.132813	-1.338196E-05
 0.127838	-1.652527E-05
 0.122803	-1.977539E-05
 0.117798	-2.308044E-05
 0.112823	-2.645569E-05
 0.107819	-2.989197E-05
 0.102844	-3.338928E-05
 0.097839	-3.697510E-05
 0.092834	-4.060059E-05
 0.087860	-4.428406E-05
 0.082855	-4.803162E-05
 0.077881	-5.187988E-05
 0.072845	-5.572510E-05
 0.067871	-5.963135E-05
 0.062866	-6.353760E-05
 0.057861	-6.750488E-05
 0.052856	-7.153320E-05
 0.047888	-7.556152E-05
 0.042856	-7.968140E-05
 0.037869	-8.377075E-05
 0.032870	-8.792114E-05
 0.027875	-9.210205E-05
 0.022903	-9.628296E-05
 0.017877	-1.005249E-04
 0.012878	-1.047668E-04
 0.007895	-1.090393E-04
 0.002884	-1.132813E-04
 -0.002118	-1.175842E-04
 -0.007086	-1.218872E-04
 -0.012106	-1.262207E-04
 -0.017108	-1.305542E-04
 -0.022104	-1.348877E-04
 -0.027103	-1.392517E-04
 -0.032077	-1.435852E-04
 -0.037097	-1.479492E-04
 -0.042102	-1.523132E-04
 -0.047092	-1.566772E-04
 -0.052063	-1.610107E-04
 -0.057037	-1.653442E-04
 -0.062012	-1.696777E-04
 -0.067047	-1.740112E-04
 -0.072052	-1.783447E-04
 -0.077026	-1.826477E-04
 -0.082031	-1.869507E-04
 -0.087036	-1.912231E-04
 -0.092010	-1.954651E-04
 -0.097015	-1.997070E-04
 -0.102051	-2.039185E-04
 -0.107025	-2.080994E-04
 -0.112030	-2.122192E-04
 -0.117035	-2.163391E-04
 -0.122009	-2.203979E-04
 -0.127014	-2.244263E-04
 -0.132019	-2.283936E-04
 -0.137024	-2.323303E-04
 -0.141998	-2.361755E-04
 -0.147003	-2.399902E-04
 -0.151978	-2.436829E-04
 -0.156982	-2.473450E-04
 -0.161987	-2.509460E-04
 -0.166992	-2.544250E-04
 -0.171967	-2.577820E-04
 -0.176941	-2.610474E-04
 -0.181976	-2.641602E-04
 -0.186981	-2.671814E-04
 -0.191986	-2.700500E-04
 -0.196960	-2.727356E-04
 -0.201965	-2.752380E-04
 -0.206970	-2.775574E-04
 -0.211945	-2.796631E-04
 -0.216949	-2.815247E-04
 -0.221954	-2.831116E-04
 -0.226959	-2.844543E-04
 -0.231934	-2.854919E-04
 -0.236938	-2.862244E-04
 -0.241943	-2.866211E-04
 -0.246948	-2.866516E-04
 -0.251953	-2.863770E-04
 -0.256958	-2.857056E-04
 -0.261902	-2.846680E-04
 -0.266937	-2.832947E-04
 -0.271942	-2.815552E-04
 -0.276917	-2.794800E-04
 -0.281921	-2.770996E-04
 -0.286926	-2.744446E-04
 -0.291901	-2.715759E-04
 -0.296875	-2.684937E-04
 -0.297516	-2.629395E-04
 -0.292542	-2.483215E-04
 -0.287537	-2.350159E-04
 -0.282532	-2.228394E-04
 -0.277588	-2.116699E-04
 -0.272552	-2.012634E-04
 -0.267548	-1.916809E-04
 -0.262573	-1.827698E-04
 -0.257568	-1.745300E-04
 -0.252594	-1.668396E-04
 -0.247589	-1.596680E-04
 -0.242615	-1.530457E-04
 -0.237579	-1.467896E-04
 -0.232605	-1.409607E-04
 -0.227600	-1.354980E-04
 -0.222595	-1.304016E-04
 -0.217621	-1.256104E-04
 -0.212646	-1.211243E-04
 -0.207642	-1.168518E-04
 -0.202637	-1.128540E-04
 -0.197632	-1.091003E-04
 -0.192657	-1.055603E-04
 -0.187683	-1.022034E-04
 -0.182648	-9.899902E-05
 -0.177673	-9.597778E-05
 -0.172668	-9.310913E-05
 -0.167694	-9.039307E-05
 -0.162720	-8.776855E-05
 -0.157684	-8.526611E-05
 -0.152710	-8.288574E-05
 -0.147705	-8.056641E-05
 -0.142731	-7.833862E-05
 -0.137726	-7.617188E-05
 -0.132721	-7.406616E-05
 -0.127747	-7.202148E-05
 -0.122772	-7.000732E-05
 -0.117767	-6.799316E-05
 -0.112762	-6.600952E-05
 -0.107788	-6.402588E-05
 -0.102783	-6.207275E-05
 -0.097809	-6.008911E-05
 -0.092804	-5.804443E-05
 -0.087860	-5.599976E-05
 -0.082825	-5.389404E-05
 -0.077850	-5.172729E-05
 -0.072845	-4.948425E-05
 -0.067871	-4.719238E-05
 -0.062897	-4.483032E-05
 -0.057861	-4.237061E-05
 -0.052887	-3.982849E-05
 -0.047977	-3.721008E-05
 -0.042981	-3.449402E-05
 -0.037988	-3.168335E-05
 -0.033017	-2.879639E-05
 -0.028006	-2.579956E-05
 -0.023010	-2.272339E-05
 -0.018015	-1.955566E-05
 -0.013025	-1.630554E-05
 -0.008029	-1.297913E-05
 -0.003058	-9.564209E-06
