Date: 15-08-25
Time: 14:14:22 PM

Exp. Conditions:
Cyclic voltammetry
Start potential (V) = .0000
First vertex potential (V) = .5000
Second vertex potential (V) = -.3000
Step potential (V) = .00500
Scan rate (V/s) = .50000
Equilibration time (s) = 
Number of Data Points =  320 

 Potential	  Scan 1   
 0.002097	-8.325195E-06
 0.009665	9.146118E-06
 0.014661	1.188965E-05
 0.019666	1.362305E-05
 0.024664	1.520691E-05
 0.029666	1.685486E-05
 0.034665	1.863403E-05
 0.039661	2.070007E-05
 0.044653	2.303467E-05
 0.049652	2.570496E-05
 0.054657	2.877502E-05
 0.059662	3.228455E-05
 0.064636	3.627930E-05
 0.069641	4.076843E-05
 0.074646	4.582520E-05
 0.079620	5.142212E-05
 0.084625	5.767822E-05
 0.089600	6.451416E-05
 0.094604	7.202148E-05
 0.099579	8.010864E-05
 0.104553	8.877563E-05
 0.109558	9.799194E-05
 0.114532	1.078796E-04
 0.119537	1.180420E-04
 0.124512	1.289978E-04
 0.129517	1.403503E-04
 0.134491	1.520081E-04
 0.139496	1.639709E-04
 0.144501	1.763306E-04
 0.149475	1.888428E-04
 0.154480	2.015076E-04
 0.159454	2.143250E-04
 0.164459	2.271118E-04
 0.169464	2.398987E-04
 0.174438	2.525635E-04
 0.179443	2.650757E-04
 0.184448	2.772522E-04
 0.189423	2.890930E-04
 0.194427	3.004150E-04
 0.199432	3.115845E-04
 0.204407	3.216248E-04
 0.209412	3.309326E-04
 0.214386	3.393555E-04
 0.219391	3.466797E-04
 0.224396	3.528748E-04
 0.229370	3.576050E-04
 0.234375	3.610535E-04
 0.239380	3.627930E-04
 0.244354	3.628540E-04
 0.249359	3.611145E-04
 0.254364	3.576660E-04
 0.259338	3.525391E-04
 0.264343	3.458252E-04
 0.269318	3.378601E-04
 0.274323	3.290710E-04
 0.279327	3.197021E-04
 0.284302	3.100891E-04
 0.289276	3.005371E-04
 0.294281	2.912903E-04
 0.299286	2.825012E-04
 0.304260	2.742920E-04
 0.309265	2.665405E-04
 0.314270	2.593994E-04
 0.319244	2.527771E-04
 0.324249	2.466736E-04
 0.329224	2.409363E-04
 0.334229	2.356873E-04
 0.339203	2.307434E-04
 0.344208	2.261963E-04
 0.349182	2.218628E-04
 0.354187	2.178345E-04
 0.359161	2.140808E-04
 0.364166	2.105408E-04
 0.369141	2.071533E-04
 0.374146	2.039795E-04
 0.379120	2.009277E-04
 0.384125	1.980591E-04
 0.389130	1.952515E-04
 0.394104	1.926575E-04
 0.399078	1.900940E-04
 0.404083	1.876831E-04
 0.409058	1.853333E-04
 0.414063	1.831055E-04
 0.419067	1.808472E-04
 0.424042	1.787720E-04
 0.429047	1.766663E-04
 0.434021	1.746826E-04
 0.439026	1.726379E-04
 0.444031	1.707458E-04
 0.449005	1.687927E-04
 0.453979	1.669312E-04
 0.458984	1.650085E-04
 0.463959	1.632080E-04
 0.468964	1.613464E-04
 0.473938	1.595459E-04
 0.478943	1.577148E-04
 0.483948	1.559143E-04
 0.488922	1.541138E-04
 0.493896	1.523743E-04
 0.498901	1.506042E-04
 0.500488	1.433716E-04
 0.495148	1.257629E-04
 0.490143	1.179199E-04
 0.485138	1.124268E-04
 0.480133	1.080627E-04
 0.475128	1.043396E-04
 0.470123	1.011658E-04
 0.465118	9.823608E-05
 0.460114	9.561157E-05
 0.455109	9.310913E-05
 0.450104	9.082031E-05
 0.445099	8.862305E-05
 0.440094	8.651733E-05
 0.435089	8.453369E-05
 0.430084	8.261108E-05
 0.425079	8.071899E-05
 0.420074	7.891846E-05
 0.415070	7.711792E-05
 0.410095	7.540894E-05
 0.405090	7.366943E-05
 0.400085	7.199097E-05
 0.395081	7.031250E-05
 0.390076	6.869507E-05
 0.385071	6.704712E-05
 0.380066	6.549072E-05
 0.375061	6.384277E-05
 0.370056	6.228638E-05
 0.365051	6.066895E-05
 0.360046	5.908203E-05
 0.355072	5.749512E-05
 0.350067	5.593872E-05
 0.345062	5.432129E-05
 0.340057	5.273438E-05
 0.335052	5.108643E-05
 0.330078	4.956360E-05
 0.325073	4.786987E-05
 0.320068	4.621582E-05
 0.315063	4.447632E-05
 0.310059	4.276123E-05
 0.305054	4.093018E-05
 0.300049	3.816223E-05
 0.295044	3.692932E-05
 0.290039	3.494568E-05
 0.285065	3.285828E-05
 0.280060	3.061523E-05
 0.275055	2.821350E-05
 0.270050	2.572021E-05
 0.265045	2.306519E-05
 0.260040	2.016296E-05
 0.255066	1.705017E-05
 0.250061	1.368103E-05
 0.245056	1.005249E-05
 0.240051	6.094360E-06
 0.235046	1.828613E-06
 0.230072	-2.880859E-06
 0.225067	-7.934570E-06
 0.220062	-1.343384E-05
 0.215088	-1.939697E-05
 0.210083	-2.582397E-05
 0.205078	-3.274841E-05
 0.200104	-4.017639E-05
 0.195099	-4.813232E-05
 0.190094	-5.664063E-05
 0.185089	-6.555176E-05
 0.180084	-7.495117E-05
 0.175079	-8.477783E-05
 0.170105	-9.506226E-05
 0.165100	-1.057434E-04
 0.160095	-1.167297E-04
 0.155090	-1.280212E-04
 0.150085	-1.395874E-04
 0.145081	-1.513672E-04
 0.140076	-1.632385E-04
 0.135101	-1.751709E-04
 0.130096	-1.871338E-04
 0.125092	-1.989136E-04
 0.120087	-2.106018E-04
 0.115082	-2.220154E-04
 0.110107	-2.330933E-04
 0.105103	-2.437439E-04
 0.100098	-2.537842E-04
 0.095093	-2.632141E-04
 0.090118	-2.718506E-04
 0.085114	-2.794800E-04
 0.080109	-2.860718E-04
 0.075104	-2.914124E-04
 0.070099	-2.953186E-04
 0.065094	-2.976379E-04
 0.060089	-2.981567E-04
 0.055084	-2.967529E-04
 0.050079	-2.934265E-04
 0.045059	-2.882385E-04
 0.040051	-2.811890E-04
 0.035043	-2.728577E-04
 0.030032	-2.634583E-04
 0.025031	-2.535095E-04
 0.020023	-2.434387E-04
 0.015018	-2.334900E-04
 0.010007	-2.239990E-04
 0.005011	-2.150269E-04
 0.000006	-2.068787E-04
 -0.004990	-1.991882E-04
 -0.010001	-1.923218E-04
 -0.015005	-1.858826E-04
 -0.020004	-1.800232E-04
 -0.025009	-1.746216E-04
 -0.030011	-1.696472E-04
 -0.035013	-1.651001E-04
 -0.040012	-1.608582E-04
 -0.045016	-1.569519E-04
 -0.049957	-1.533813E-04
 -0.054962	-1.499329E-04
 -0.059967	-1.467285E-04
 -0.064972	-1.438293E-04
 -0.069977	-1.411133E-04
 -0.074951	-1.385193E-04
 -0.079956	-1.360779E-04
 -0.084961	-1.338196E-04
 -0.089966	-1.316833E-04
 -0.094971	-1.296692E-04
 -0.099976	-1.277771E-04
 -0.104980	-1.260071E-04
 -0.109955	-1.243286E-04
 -0.114960	-1.227112E-04
 -0.119965	-1.212158E-04
 -0.124969	-1.197815E-04
 -0.129974	-1.183777E-04
 -0.134979	-1.170959E-04
 -0.139954	-1.158142E-04
 -0.144958	-1.146545E-04
 -0.149963	-1.135254E-04
 -0.154968	-1.124573E-04
 -0.159973	-1.114197E-04
 -0.164948	-1.104126E-04
 -0.169952	-1.094666E-04
 -0.174957	-1.085510E-04
 -0.179962	-1.076965E-04
 -0.184967	-1.069031E-04
 -0.189972	-1.061096E-04
 -0.194977	-1.053467E-04
 -0.199951	-1.046448E-04
 -0.204956	-1.039124E-04
 -0.209961	-1.032715E-04
 -0.214966	-1.026306E-04
 -0.219971	-1.020203E-04
 -0.224976	-1.014099E-04
 -0.229950	-1.008911E-04
 -0.234955	-1.003418E-04
 -0.239960	-9.985352E-05
 -0.244965	-9.933472E-05
 -0.249969	-9.887695E-05
 -0.254974	-9.848022E-05
 -0.259949	-9.805298E-05
 -0.264954	-9.762573E-05
 -0.269958	-9.729004E-05
 -0.274963	-9.695435E-05
 -0.279968	-9.661865E-05
 -0.284943	-9.631348E-05
 -0.289948	-9.603882E-05
 -0.294952	-9.573364E-05
 -0.298309	-9.530640E-05
 -0.293365	-5.337524E-05
 -0.288330	-3.618164E-05
 -0.283325	-2.944336E-05
 -0.278320	-2.649231E-05
 -0.273315	-2.494812E-05
 -0.268311	-2.393494E-05
 -0.263306	-2.318726E-05
 -0.258301	-2.260437E-05
 -0.253326	-2.207031E-05
 -0.248322	-2.160339E-05
 -0.243317	-2.117615E-05
 -0.238342	-2.078857E-05
 -0.233337	-2.042542E-05
 -0.228333	-2.008362E-05
 -0.223358	-1.978760E-05
 -0.218353	-1.947327E-05
 -0.213348	-1.921387E-05
 -0.208374	-1.895752E-05
 -0.203369	-1.870422E-05
 -0.198364	-1.847229E-05
 -0.193390	-1.825256E-05
 -0.188385	-1.806641E-05
 -0.183380	-1.784668E-05
 -0.178406	-1.765137E-05
 -0.173401	-1.747437E-05
 -0.168396	-1.730652E-05
 -0.163422	-1.713257E-05
 -0.158417	-1.696167E-05
 -0.153442	-1.679688E-05
 -0.148438	-1.665649E-05
 -0.143433	-1.648865E-05
 -0.138458	-1.635742E-05
 -0.133453	-1.622314E-05
 -0.128479	-1.608582E-05
 -0.123474	-1.595154E-05
 -0.118469	-1.585083E-05
 -0.113495	-1.570740E-05
 -0.108521	-1.559143E-05
 -0.103516	-1.546631E-05
 -0.098511	-1.532898E-05
 -0.093536	-1.520081E-05
 -0.088531	-1.509705E-05
 -0.083557	-1.494141E-05
 -0.078552	-1.481934E-05
 -0.073578	-1.469421E-05
 -0.068573	-1.452942E-05
 -0.063568	-1.436157E-05
 -0.058563	-1.416626E-05
 -0.053589	-1.397400E-05
 -0.048679	-1.376648E-05
 -0.043686	-1.352844E-05
 -0.038690	-1.325073E-05
 -0.033694	-1.293335E-05
 -0.028705	-1.260986E-05
 -0.023715	-1.223145E-05
 -0.018716	-1.179504E-05
 -0.013721	-1.125793E-05
 -0.008731	-1.072998E-05
 -0.003726	-9.963989E-06

 Potential	  Scan 2   
 0.001257	-9.313965E-06
 0.006262	-8.422852E-06
 0.011237	-7.467651E-06
 0.016226	-6.271362E-06
 0.021219	-4.959106E-06
 0.026208	-3.417053E-06
 0.031201	-1.656189E-06
 0.036188	3.759766E-07
 0.041183	2.747803E-06
 0.046179	5.468750E-06
 0.051208	8.569336E-06
 0.056183	1.211243E-05
 0.061188	1.609192E-05
 0.066162	2.060547E-05
 0.071167	2.562866E-05
 0.076141	3.128967E-05
 0.081146	3.750000E-05
 0.086121	4.432373E-05
 0.091125	5.175781E-05
 0.096100	5.978394E-05
 0.101105	6.842041E-05
 0.106079	7.760620E-05
 0.111053	8.740234E-05
 0.116058	9.771729E-05
 0.121033	1.085205E-04
 0.126038	1.197815E-04
 0.131012	1.313782E-04
 0.135986	1.433411E-04
 0.140991	1.556702E-04
 0.145996	1.682129E-04
 0.150970	1.809387E-04
 0.155975	1.937866E-04
 0.160980	2.066345E-04
 0.165985	2.194824E-04
 0.170959	2.322388E-04
 0.175964	2.448120E-04
 0.180969	2.570801E-04
 0.185944	2.690430E-04
 0.190948	2.805786E-04
 0.195953	2.915344E-04
 0.200928	3.018799E-04
 0.205933	3.117676E-04
 0.210907	3.203735E-04
 0.215912	3.280029E-04
 0.220886	3.345337E-04
 0.225891	3.397522E-04
 0.230896	3.435059E-04
 0.235870	3.457336E-04
 0.240875	3.463135E-04
 0.245880	3.450928E-04
 0.250885	3.421631E-04
 0.255859	3.374329E-04
 0.260864	3.312073E-04
 0.265839	3.236084E-04
 0.270844	3.150635E-04
 0.275818	3.058167E-04
 0.280823	2.962646E-04
 0.285797	2.866821E-04
 0.290802	2.773438E-04
 0.295807	2.683716E-04
 0.300781	2.599792E-04
 0.305786	2.521057E-04
 0.310760	2.447815E-04
 0.315765	2.380066E-04
 0.320770	2.317200E-04
 0.325745	2.258606E-04
 0.330750	2.204895E-04
 0.335724	2.154541E-04
 0.340729	2.108154E-04
 0.345703	2.063904E-04
 0.350708	2.023315E-04
 0.355682	1.984558E-04
 0.360687	1.948547E-04
 0.365692	1.913757E-04
 0.370667	1.881714E-04
 0.375641	1.850586E-04
 0.380646	1.821289E-04
 0.385620	1.793213E-04
 0.390625	1.766663E-04
 0.395630	1.741028E-04
 0.400604	1.716614E-04
 0.405609	1.692810E-04
 0.410583	1.670532E-04
 0.415558	1.648560E-04
 0.420563	1.627502E-04
 0.425568	1.606750E-04
 0.430542	1.586914E-04
 0.435547	1.567383E-04
 0.440521	1.548767E-04
 0.445526	1.529846E-04
 0.450531	1.511841E-04
 0.455505	1.494141E-04
 0.460510	1.476746E-04
 0.465485	1.459656E-04
 0.470459	1.442566E-04
 0.475464	1.426086E-04
 0.480469	1.409607E-04
 0.485443	1.393433E-04
 0.490448	1.377258E-04
 0.495422	1.361389E-04
 0.500793	1.345825E-04
 0.501404	1.258850E-04
 0.496155	1.103210E-04
 0.491150	1.030579E-04
 0.486145	9.799194E-05
 0.481140	9.390259E-05
 0.476135	9.051514E-05
 0.471130	8.746338E-05
 0.466125	8.480835E-05
 0.461121	8.230591E-05
 0.456116	8.004761E-05
 0.451111	7.788086E-05
 0.446106	7.580566E-05
 0.441101	7.385254E-05
 0.436127	7.202148E-05
 0.431091	7.019043E-05
 0.426117	6.845093E-05
 0.421112	6.674194E-05
 0.416107	6.509399E-05
 0.411102	6.341553E-05
 0.406097	6.182861E-05
 0.401093	6.024170E-05
 0.396088	5.871582E-05
 0.391083	5.712891E-05
 0.386078	5.563354E-05
 0.381104	5.410767E-05
 0.376099	5.264282E-05
 0.371094	5.108643E-05
 0.366089	4.970398E-05
 0.361084	4.818420E-05
 0.356079	4.665833E-05
 0.351105	4.518433E-05
 0.346100	4.370728E-05
 0.341095	4.216919E-05
 0.336090	3.957825E-05
 0.331085	3.888855E-05
 0.326080	3.736877E-05
 0.321075	3.581238E-05
 0.316101	3.417969E-05
 0.311066	3.251343E-05
 0.306061	3.081360E-05
 0.301086	2.902222E-05
 0.296082	2.720032E-05
 0.291077	2.528687E-05
 0.286072	2.332153E-05
 0.281067	2.120972E-05
 0.276062	1.896973E-05
 0.271088	1.660767E-05
 0.266083	1.406555E-05
 0.261078	1.136169E-05
 0.256073	8.410645E-06
 0.251068	5.249023E-06
 0.246094	1.808472E-06
 0.241089	-1.920471E-06
 0.236084	-5.981445E-06
 0.231079	-1.039734E-05
 0.226105	-1.522217E-05
 0.221100	-2.046509E-05
 0.216095	-2.610168E-05
 0.211090	-3.224487E-05
 0.206116	-3.887024E-05
 0.201111	-4.599915E-05
 0.196106	-5.364990E-05
 0.191101	-6.179810E-05
 0.186096	-7.043457E-05
 0.181091	-7.955933E-05
 0.176117	-8.914185E-05
 0.171112	-9.915161E-05
 0.166107	-1.095886E-04
 0.161102	-1.203918E-04
 0.156128	-1.314697E-04
 0.151093	-1.428833E-04
 0.146118	-1.545105E-04
 0.141113	-1.662598E-04
 0.136108	-1.781006E-04
 0.131104	-1.899719E-04
 0.126129	-2.018127E-04
 0.121124	-2.135010E-04
 0.116119	-2.249756E-04
 0.111115	-2.361755E-04
 0.106140	-2.469788E-04
 0.101135	-2.572021E-04
 0.096130	-2.669067E-04
 0.091125	-2.758484E-04
 0.086151	-2.838745E-04
 0.081116	-2.909241E-04
 0.076141	-2.967834E-04
 0.071136	-3.012695E-04
 0.066101	-3.042908E-04
 0.061127	-3.055420E-04
 0.056091	-3.049622E-04
 0.051117	-3.024902E-04
 0.046085	-2.980347E-04
 0.041077	-2.918091E-04
 0.036069	-2.840881E-04
 0.031061	-2.751160E-04
 0.026056	-2.654419E-04
 0.021042	-2.554016E-04
 0.016040	-2.453613E-04
 0.011038	-2.356873E-04
 0.006046	-2.263489E-04
 0.001028	-2.179871E-04
 -0.003958	-2.100525E-04
 -0.008978	-2.028809E-04
 -0.013977	-1.961975E-04
 -0.018985	-1.900940E-04
 -0.023984	-1.844788E-04
 -0.028989	-1.793213E-04
 -0.033987	-1.745300E-04
 -0.038983	-1.701355E-04
 -0.043988	-1.660767E-04
 -0.048990	-1.622925E-04
 -0.053925	-1.587524E-04
 -0.058929	-1.554871E-04
 -0.063934	-1.524353E-04
 -0.068939	-1.495667E-04
 -0.073944	-1.468506E-04
 -0.078949	-1.443481E-04
 -0.083923	-1.419678E-04
 -0.088928	-1.397400E-04
 -0.093933	-1.376343E-04
 -0.098938	-1.356506E-04
 -0.103943	-1.337585E-04
 -0.108948	-1.319885E-04
 -0.113922	-1.302795E-04
 -0.118927	-1.286926E-04
 -0.123932	-1.271667E-04
 -0.128937	-1.257019E-04
 -0.133942	-1.243286E-04
 -0.138947	-1.230164E-04
 -0.143921	-1.217651E-04
 -0.148926	-1.205444E-04
 -0.153931	-1.193848E-04
 -0.158936	-1.183167E-04
 -0.163910	-1.172791E-04
 -0.168915	-1.163025E-04
 -0.173920	-1.153564E-04
 -0.178925	-1.144409E-04
 -0.183929	-1.135559E-04
 -0.188934	-1.127319E-04
 -0.193939	-1.119080E-04
 -0.198914	-1.111755E-04
 -0.203918	-1.104126E-04
 -0.208923	-1.097412E-04
 -0.213928	-1.090698E-04
 -0.218933	-1.084900E-04
 -0.223907	-1.078186E-04
 -0.228912	-1.072388E-04
 -0.233917	-1.066895E-04
 -0.238922	-1.061707E-04
 -0.243896	-1.056213E-04
 -0.248932	-1.051636E-04
 -0.253937	-1.046753E-04
 -0.258911	-1.042480E-04
 -0.263916	-1.038208E-04
 -0.268921	-1.034546E-04
 -0.273926	-1.030579E-04
 -0.278931	-1.027222E-04
 -0.283905	-1.023865E-04
 -0.288910	-1.020813E-04
 -0.293915	-1.017761E-04
 -0.298920	-1.015015E-04
 -0.295166	-6.848145E-05
 -0.290161	-4.550476E-05
 -0.285126	-3.677673E-05
 -0.280151	-3.309326E-05
 -0.275116	-3.124390E-05
 -0.270142	-3.014221E-05
 -0.265137	-2.929993E-05
 -0.260132	-2.828979E-05
 -0.255127	-2.808533E-05
 -0.250122	-2.764893E-05
 -0.245148	-2.722473E-05
 -0.240143	-2.684021E-05
 -0.235138	-2.641907E-05
 -0.230164	-2.607727E-05
 -0.225159	-2.570190E-05
 -0.220154	-2.542419E-05
 -0.215179	-2.512207E-05
 -0.210175	-2.485046E-05
 -0.205170	-2.458496E-05
 -0.200195	-2.433472E-05
 -0.195190	-2.408447E-05
 -0.190216	-2.384338E-05
 -0.185211	-2.362061E-05
 -0.180206	-2.337952E-05
 -0.175201	-2.322083E-05
 -0.170227	-2.297058E-05
 -0.165222	-2.278442E-05
 -0.160248	-2.259521E-05
 -0.155243	-2.241516E-05
 -0.150238	-2.224731E-05
 -0.145264	-2.209167E-05
 -0.140259	-2.192688E-05
 -0.135284	-2.178040E-05
 -0.130280	-2.160339E-05
 -0.125275	-2.146301E-05
 -0.120300	-2.130432E-05
 -0.115295	-2.115479E-05
 -0.110321	-2.100525E-05
 -0.105316	-2.087097E-05
 -0.100342	-2.073669E-05
 -0.095337	-2.057800E-05
 -0.090363	-2.041626E-05
 -0.085358	-2.027283E-05
 -0.080383	-2.010498E-05
 -0.075378	-1.995544E-05
 -0.070374	-1.980896E-05
 -0.065399	-1.961365E-05
 -0.060394	-1.941223E-05
 -0.055389	-1.920471E-05
 -0.050415	-1.897278E-05
 -0.045499	-1.873169E-05
 -0.040509	-1.844177E-05
 -0.035516	-1.813354E-05
 -0.030521	-1.776428E-05
 -0.025525	-1.739807E-05
 -0.020535	-1.691284E-05
 -0.015543	-1.639709E-05
 -0.010553	-1.584473E-05
 -0.005557	-1.516724E-05
 -0.000565	-1.445618E-05

 Potential	  Scan 3   
 0.004425	-1.356506E-05
 0.009415	-1.258240E-05
 0.014410	-1.146851E-05
 0.019403	-1.014099E-05
 0.024393	-8.651733E-06
 0.029382	-6.893921E-06
 0.034375	-4.895020E-06
 0.039362	-2.611389E-06
 0.044348	2.227783E-08
 0.049338	3.028870E-06
 0.054352	6.472778E-06
 0.059357	1.038208E-05
 0.064362	1.479492E-05
 0.069336	1.972351E-05
 0.074341	2.523804E-05
 0.079315	3.131714E-05
 0.084290	3.802795E-05
 0.089294	4.532166E-05
 0.094269	5.322266E-05
 0.099274	6.173706E-05
 0.104248	7.086182E-05
 0.109253	8.050537E-05
 0.114227	9.072876E-05
 0.119202	1.014099E-04
 0.124207	1.125488E-04
 0.129181	1.240845E-04
 0.134186	1.359863E-04
 0.139191	1.482239E-04
 0.144165	1.607056E-04
 0.149170	1.733704E-04
 0.154144	1.861877E-04
 0.159149	1.990662E-04
 0.164154	2.119751E-04
 0.169128	2.247314E-04
 0.174133	2.373657E-04
 0.179138	2.497253E-04
 0.184113	2.617493E-04
 0.189117	2.734070E-04
 0.194122	2.845154E-04
 0.199097	2.950134E-04
 0.204102	3.047791E-04
 0.209106	3.140259E-04
 0.214081	3.218079E-04
 0.219086	3.285828E-04
 0.224060	3.341370E-04
 0.229065	3.382874E-04
 0.234070	3.409119E-04
 0.239044	3.418579E-04
 0.244049	3.410950E-04
 0.249054	3.385620E-04
 0.254028	3.342896E-04
 0.259033	3.283997E-04
 0.264038	3.211670E-04
 0.269012	3.128052E-04
 0.274017	3.037109E-04
 0.278992	2.941895E-04
 0.283997	2.846069E-04
 0.289001	2.751770E-04
 0.293976	2.661438E-04
 0.298981	2.575684E-04
 0.303955	2.495422E-04
 0.308960	2.420959E-04
 0.313934	2.351685E-04
 0.318939	2.287598E-04
 0.323914	2.228394E-04
 0.328918	2.173462E-04
 0.333893	2.122192E-04
 0.338898	2.074585E-04
 0.343872	2.030029E-04
 0.348877	1.988525E-04
 0.353851	1.948853E-04
 0.358856	1.912231E-04
 0.363831	1.877441E-04
 0.368835	1.844177E-04
 0.373840	1.813049E-04
 0.378815	1.783142E-04
 0.383820	1.755066E-04
 0.388794	1.727600E-04
 0.393799	1.701965E-04
 0.398773	1.676941E-04
 0.403778	1.653137E-04
 0.408752	1.630249E-04
 0.413757	1.608276E-04
 0.418732	1.586609E-04
 0.423737	1.565857E-04
 0.428711	1.546021E-04
 0.433716	1.526184E-04
 0.438721	1.507263E-04
 0.443695	1.488647E-04
 0.448700	1.470642E-04
 0.453674	1.452637E-04
 0.458679	1.435242E-04
 0.463654	1.418152E-04
 0.468658	1.401062E-04
 0.473633	1.384583E-04
 0.478607	1.367798E-04
 0.483612	1.351624E-04
 0.488617	1.335754E-04
 0.493591	1.320496E-04
 0.498596	1.304321E-04
 0.500183	1.234741E-04
 0.494843	1.066895E-04
 0.489838	9.933472E-05
 0.484802	9.417725E-05
 0.479797	9.011841E-05
 0.474823	8.670044E-05
 0.469788	8.370972E-05
 0.464813	8.099365E-05
 0.459808	7.855225E-05
 0.454803	7.626343E-05
 0.449799	7.412720E-05
 0.444794	7.211304E-05
 0.439789	7.019043E-05
 0.434784	6.832886E-05
 0.429779	6.652832E-05
 0.424774	6.478882E-05
 0.419769	6.311035E-05
 0.414764	6.140137E-05
 0.409760	5.981445E-05
 0.404755	5.822754E-05
 0.399780	5.667114E-05
 0.394775	5.511475E-05
 0.389771	5.361938E-05
 0.384766	5.209351E-05
 0.379761	5.059814E-05
 0.374756	4.915466E-05
 0.369751	4.766846E-05
 0.364746	4.620667E-05
 0.359741	4.469910E-05
 0.354736	4.321289E-05
 0.349762	4.173279E-05
 0.344757	3.912964E-05
 0.339752	3.850098E-05
 0.334747	3.703308E-05
 0.329742	3.549194E-05
 0.324768	3.394470E-05
 0.319763	3.234558E-05
 0.314758	3.074646E-05
 0.309753	2.906799E-05
 0.304749	2.736511E-05
 0.299744	2.556152E-05
 0.294739	2.377930E-05
 0.289734	2.185059E-05
 0.284729	1.985474E-05
 0.279755	1.773376E-05
 0.274750	1.547852E-05
 0.269745	1.310730E-05
 0.264771	1.054688E-05
 0.259735	7.785034E-06
 0.254761	4.833984E-06
 0.249756	1.629944E-06
 0.244751	-1.844788E-06
 0.239777	-5.624390E-06
 0.234741	-9.741211E-06
 0.229767	-1.422119E-05
 0.224762	-1.909180E-05
 0.219788	-2.438965E-05
 0.214783	-3.012390E-05
 0.209778	-3.635864E-05
 0.204773	-4.304810E-05
 0.199799	-5.026245E-05
 0.194794	-5.798340E-05
 0.189789	-6.616211E-05
 0.184784	-7.492065E-05
 0.179779	-8.407593E-05
 0.174774	-9.375000E-05
 0.169800	-1.038208E-04
 0.164764	-1.143494E-04
 0.159790	-1.251831E-04
 0.154785	-1.363220E-04
 0.149780	-1.477051E-04
 0.144775	-1.593628E-04
 0.139801	-1.711121E-04
 0.134796	-1.829834E-04
 0.129791	-1.948547E-04
 0.124786	-2.066345E-04
 0.119781	-2.182922E-04
 0.114777	-2.297058E-04
 0.109802	-2.408142E-04
 0.104797	-2.514648E-04
 0.099792	-2.616577E-04
 0.094818	-2.711792E-04
 0.089813	-2.799683E-04
 0.084808	-2.878113E-04
 0.079803	-2.946777E-04
 0.074799	-3.002625E-04
 0.069794	-3.044739E-04
 0.064789	-3.071899E-04
 0.059784	-3.081055E-04
 0.054779	-3.071899E-04
 0.049774	-3.043518E-04
 0.044748	-2.995911E-04
 0.039740	-2.930298E-04
 0.034732	-2.850037E-04
 0.029724	-2.758789E-04
 0.024719	-2.661133E-04
 0.019714	-2.560425E-04
 0.014706	-2.461243E-04
 0.009705	-2.365112E-04
 0.004700	-2.274475E-04
 -0.000302	-2.190857E-04
 -0.005295	-2.112427E-04
 -0.010309	-2.042236E-04
 -0.015311	-1.976624E-04
 -0.020313	-1.916199E-04
 -0.025317	-1.861267E-04
 -0.030313	-1.809998E-04
 -0.035318	-1.763000E-04
 -0.040314	-1.719666E-04
 -0.045319	-1.679688E-04
 -0.050262	-1.641846E-04
 -0.055267	-1.607361E-04
 -0.060272	-1.575012E-04
 -0.065277	-1.544495E-04
 -0.070282	-1.516113E-04
 -0.075256	-1.489868E-04
 -0.080261	-1.464539E-04
 -0.085266	-1.441040E-04
 -0.090271	-1.418762E-04
 -0.095276	-1.398010E-04
 -0.100250	-1.378479E-04
 -0.105255	-1.360779E-04
 -0.110260	-1.342773E-04
 -0.115265	-1.325378E-04
 -0.120270	-1.309204E-04
 -0.125275	-1.293945E-04
 -0.130249	-1.278992E-04
 -0.135254	-1.265564E-04
 -0.140259	-1.252747E-04
 -0.145264	-1.240540E-04
 -0.150269	-1.228333E-04
 -0.155273	-1.217041E-04
 -0.160248	-1.206055E-04
 -0.165253	-1.195984E-04
 -0.170258	-1.185608E-04
 -0.175262	-1.176453E-04
 -0.180237	-1.167297E-04
 -0.185242	-1.159058E-04
 -0.190247	-1.150513E-04
 -0.195251	-1.142578E-04
 -0.200256	-1.134949E-04
 -0.205261	-1.127625E-04
 -0.210266	-1.120605E-04
 -0.215271	-1.113892E-04
 -0.220245	-1.107483E-04
 -0.225250	-1.101379E-04
 -0.230255	-1.095581E-04
 -0.235260	-1.090088E-04
 -0.240265	-1.084900E-04
 -0.245270	-1.079712E-04
 -0.250244	-1.074829E-04
 -0.255249	-1.070251E-04
 -0.260254	-1.065979E-04
 -0.265259	-1.061401E-04
 -0.270264	-1.057434E-04
 -0.275269	-1.053772E-04
 -0.280243	-1.050415E-04
 -0.285248	-1.047058E-04
 -0.290253	-1.044006E-04
 -0.295258	-1.040955E-04
 -0.297577	-1.009827E-04
 -0.292603	-5.908203E-05
 -0.287598	-4.359131E-05
 -0.282562	-3.746948E-05
 -0.277557	-3.471375E-05
 -0.272583	-3.324280E-05
 -0.267548	-3.228455E-05
 -0.262573	-3.152161E-05
 -0.257568	-3.051758E-05
 -0.252563	-3.035278E-05
 -0.247559	-2.994080E-05
 -0.242554	-2.951965E-05
 -0.237579	-2.910767E-05
 -0.232574	-2.870789E-05
 -0.227600	-2.838440E-05
 -0.222595	-2.806091E-05
 -0.217590	-2.773438E-05
 -0.212616	-2.745361E-05
 -0.207611	-2.712708E-05
 -0.202606	-2.686157E-05
 -0.197632	-2.662964E-05
 -0.192627	-2.637024E-05
 -0.187653	-2.612610E-05
 -0.182648	-2.590637E-05
 -0.177643	-2.567444E-05
 -0.172668	-2.544861E-05
 -0.167664	-2.527161E-05
 -0.162659	-2.507324E-05
 -0.157684	-2.491150E-05
 -0.152679	-2.471313E-05
 -0.147705	-2.453918E-05
 -0.142700	-2.435303E-05
 -0.137726	-2.419434E-05
 -0.132721	-2.404480E-05
 -0.127716	-2.386780E-05
 -0.122711	-2.370605E-05
 -0.117737	-2.355042E-05
 -0.112732	-2.342834E-05
 -0.107758	-2.324524E-05
 -0.102753	-2.308655E-05
 -0.097778	-2.292786E-05
 -0.092773	-2.277527E-05
 -0.087799	-2.262573E-05
 -0.082794	-2.247620E-05
 -0.077820	-2.229004E-05
 -0.072815	-2.214661E-05
 -0.067841	-2.193909E-05
 -0.062836	-2.177429E-05
 -0.057831	-2.155457E-05
 -0.052856	-2.132568E-05
 -0.047937	-2.106018E-05
 -0.042941	-2.079773E-05
 -0.037943	-2.048035E-05
 -0.032956	-2.013550E-05
 -0.027960	-1.976013E-05
 -0.022971	-1.933594E-05
 -0.017981	-1.882935E-05
 -0.012985	-1.828613E-05
 -0.007993	-1.764526E-05
 -0.002997	-1.683350E-05

 Potential	  Scan 4   
 0.001993	-1.609192E-05
 0.007004	-1.510925E-05
 0.011978	-1.412048E-05
 0.016971	-1.285400E-05
 0.021964	-1.144409E-05
 0.026953	-9.780884E-06
 0.031946	-7.897949E-06
 0.036929	-5.746460E-06
 0.041919	-3.241272E-06
 0.046912	-3.775024E-07
 0.051941	2.867126E-06
 0.056915	6.573486E-06
 0.061920	1.077576E-05
 0.066925	1.547241E-05
 0.071899	2.077332E-05
 0.076874	2.658386E-05
 0.081879	3.306274E-05
 0.086853	4.011536E-05
 0.091858	4.778137E-05
 0.096832	5.603027E-05
 0.101837	6.488037E-05
 0.106812	7.431030E-05
 0.111786	8.428955E-05
 0.116791	9.475708E-05
 0.121765	1.057434E-04
 0.126770	1.170959E-04
 0.131744	1.288452E-04
 0.136749	1.409607E-04
 0.141724	1.533813E-04
 0.146729	1.659546E-04
 0.151703	1.787415E-04
 0.156708	1.915894E-04
 0.161713	2.044983E-04
 0.166718	2.173157E-04
 0.171692	2.300110E-04
 0.176697	2.424316E-04
 0.181671	2.545776E-04
 0.186676	2.662964E-04
 0.191681	2.776184E-04
 0.196655	2.883301E-04
 0.201660	2.986450E-04
 0.206665	3.079529E-04
 0.211639	3.167114E-04
 0.216644	3.239136E-04
 0.221619	3.299866E-04
 0.226624	3.347473E-04
 0.231628	3.380432E-04
 0.236603	3.396912E-04
 0.241608	3.396912E-04
 0.246613	3.379211E-04
 0.251587	3.343811E-04
 0.256592	3.291626E-04
 0.261597	3.224792E-04
 0.266571	3.145752E-04
 0.271576	3.057251E-04
 0.276550	2.963257E-04
 0.281555	2.867432E-04
 0.286560	2.771912E-04
 0.291534	2.679749E-04
 0.296539	2.591553E-04
 0.301514	2.509155E-04
 0.306519	2.432251E-04
 0.311493	2.360535E-04
 0.316498	2.294312E-04
 0.321472	2.230835E-04
 0.326477	2.174683E-04
 0.331451	2.122498E-04
 0.336456	2.074280E-04
 0.341431	2.028198E-04
 0.346436	1.985168E-04
 0.351440	1.944885E-04
 0.356415	1.906738E-04
 0.361420	1.871033E-04
 0.366394	1.837158E-04
 0.371399	1.803894E-04
 0.376373	1.774292E-04
 0.381378	1.745300E-04
 0.386353	1.717834E-04
 0.391357	1.691284E-04
 0.396332	1.665955E-04
 0.401337	1.641541E-04
 0.406311	1.618347E-04
 0.411316	1.595764E-04
 0.416290	1.574097E-04
 0.421295	1.553040E-04
 0.426270	1.532898E-04
 0.431244	1.512756E-04
 0.436249	1.493530E-04
 0.441254	1.474609E-04
 0.446228	1.456299E-04
 0.451233	1.438293E-04
 0.456207	1.420593E-04
 0.461212	1.403503E-04
 0.466217	1.386414E-04
 0.471191	1.369629E-04
 0.476196	1.353149E-04
 0.481171	1.336670E-04
 0.486145	1.321106E-04
 0.491150	1.304932E-04
 0.496155	1.289673E-04
 0.497406	1.219482E-04
 0.492401	1.051025E-04
 0.487366	9.768677E-05
 0.482361	9.252930E-05
 0.477356	8.843994E-05
 0.472351	8.499146E-05
 0.467346	8.200073E-05
 0.462341	7.931519E-05
 0.457367	7.684326E-05
 0.452362	7.455444E-05
 0.447357	7.232666E-05
 0.442352	7.037354E-05
 0.437347	6.845093E-05
 0.432343	6.658936E-05
 0.427338	6.478882E-05
 0.422333	6.307983E-05
 0.417328	6.134033E-05
 0.412323	5.969238E-05
 0.407318	5.807495E-05
 0.402313	5.648804E-05
 0.397308	5.490112E-05
 0.392303	5.340576E-05
 0.387329	5.184937E-05
 0.382324	5.035400E-05
 0.377319	4.889221E-05
 0.372314	4.739990E-05
 0.367310	4.589233E-05
 0.362305	4.440613E-05
 0.357300	4.291077E-05
 0.352295	4.143066E-05
 0.347290	3.883362E-05
 0.342316	3.819885E-05
 0.337311	3.673401E-05
 0.332306	3.521729E-05
 0.327301	3.366394E-05
 0.322296	3.207703E-05
 0.317322	3.049011E-05
 0.312286	2.883911E-05
 0.307281	2.708435E-05
 0.302307	2.538757E-05
 0.297302	2.363586E-05
 0.292297	2.177734E-05
 0.287292	1.979065E-05
 0.282288	1.773987E-05
 0.277283	1.556091E-05
 0.272308	1.325684E-05
 0.267303	1.079407E-05
 0.262299	8.139038E-06
 0.257294	5.313110E-06
 0.252319	2.240906E-06
 0.247314	-1.074524E-06
 0.242310	-4.705811E-06
 0.237305	-8.642578E-06
 0.232300	-1.292419E-05
 0.227295	-1.758423E-05
 0.222290	-2.266541E-05
 0.217316	-2.814026E-05
 0.212311	-3.410339E-05
 0.207336	-4.053955E-05
 0.202332	-4.748230E-05
 0.197327	-5.493164E-05
 0.192322	-6.286621E-05
 0.187317	-7.128906E-05
 0.182312	-8.026123E-05
 0.177338	-8.966064E-05
 0.172333	-9.948730E-05
 0.167328	-1.098022E-04
 0.162323	-1.204224E-04
 0.157318	-1.314087E-04
 0.152313	-1.427307E-04
 0.147308	-1.542664E-04
 0.142334	-1.659241E-04
 0.137329	-1.777039E-04
 0.132324	-1.895447E-04
 0.127319	-2.014160E-04
 0.122345	-2.131348E-04
 0.117340	-2.247925E-04
 0.112335	-2.360229E-04
 0.107330	-2.469482E-04
 0.102325	-2.574768E-04
 0.097351	-2.673340E-04
 0.092346	-2.765198E-04
 0.087341	-2.848511E-04
 0.082336	-2.922974E-04
 0.077332	-2.985535E-04
 0.072327	-3.035278E-04
 0.067322	-3.071594E-04
 0.062317	-3.090210E-04
 0.057312	-3.091431E-04
 0.052307	-3.073120E-04
 0.047290	-3.035889E-04
 0.042279	-2.979431E-04
 0.037268	-2.907104E-04
 0.032263	-2.821350E-04
 0.027258	-2.726746E-04
 0.022250	-2.626953E-04
 0.017242	-2.526550E-04
 0.012238	-2.428589E-04
 0.007254	-2.334900E-04
 0.002237	-2.247925E-04
 -0.002768	-2.167053E-04
 -0.007770	-2.092285E-04
 -0.012775	-2.023926E-04
 -0.017773	-1.960144E-04
 -0.022778	-1.902466E-04
 -0.027774	-1.849365E-04
 -0.032779	-1.800232E-04
 -0.037778	-1.755066E-04
 -0.042780	-1.713257E-04
 -0.047781	-1.674500E-04
 -0.052734	-1.638184E-04
 -0.057709	-1.604309E-04
 -0.062744	-1.573181E-04
 -0.067749	-1.543579E-04
 -0.072723	-1.516113E-04
 -0.077728	-1.490173E-04
 -0.082733	-1.466064E-04
 -0.087738	-1.442871E-04
 -0.092743	-1.421204E-04
 -0.097717	-1.400757E-04
 -0.102722	-1.382141E-04
 -0.107727	-1.363525E-04
 -0.112732	-1.346130E-04
 -0.117737	-1.329956E-04
 -0.122711	-1.314392E-04
 -0.127716	-1.299438E-04
 -0.132721	-1.285095E-04
 -0.137726	-1.271667E-04
 -0.142731	-1.259155E-04
 -0.147736	-1.246948E-04
 -0.152740	-1.235352E-04
 -0.157715	-1.224060E-04
 -0.162720	-1.213684E-04
 -0.167725	-1.203003E-04
 -0.172729	-1.193237E-04
 -0.177734	-1.184387E-04
 -0.182709	-1.175537E-04
 -0.187714	-1.166687E-04
 -0.192719	-1.158752E-04
 -0.197723	-1.151123E-04
 -0.202728	-1.143799E-04
 -0.207733	-1.136169E-04
 -0.212708	-1.129150E-04
 -0.217712	-1.122742E-04
 -0.222717	-1.116333E-04
 -0.227722	-1.110535E-04
 -0.232727	-1.104736E-04
 -0.237701	-1.099243E-04
 -0.242706	-1.094360E-04
 -0.247711	-1.089172E-04
 -0.252716	-1.084595E-04
 -0.257721	-1.079712E-04
 -0.262726	-1.075745E-04
 -0.267731	-1.071777E-04
 -0.272705	-1.067505E-04
 -0.277710	-1.063843E-04
 -0.282715	-1.060486E-04
 -0.287720	-1.057129E-04
 -0.292725	-1.054382E-04
 -0.297699	-1.051331E-04
 -0.295258	-7.723999E-05
 -0.290253	-5.093384E-05
 -0.285248	-4.118652E-05
 -0.280243	-3.710632E-05
 -0.275208	-3.510742E-05
 -0.270233	-3.392029E-05
 -0.265228	-3.308411E-05
 -0.260223	-3.238831E-05
 -0.255249	-3.143311E-05
 -0.250244	-3.128357E-05
 -0.245239	-3.090210E-05
 -0.240234	-3.049622E-05
 -0.235260	-3.011169E-05
 -0.230255	-2.973633E-05
 -0.225250	-2.941284E-05
 -0.220276	-2.907715E-05
 -0.215271	-2.875366E-05
 -0.210266	-2.845764E-05
 -0.205261	-2.817993E-05
 -0.200287	-2.789612E-05
 -0.195282	-2.767639E-05
 -0.190308	-2.741089E-05
 -0.185303	-2.716370E-05
 -0.180298	-2.696533E-05
 -0.175323	-2.673950E-05
 -0.170319	-2.654724E-05
 -0.165314	-2.632751E-05
 -0.160339	-2.614441E-05
 -0.155365	-2.594604E-05
 -0.150360	-2.576599E-05
 -0.145355	-2.557068E-05
 -0.140381	-2.539673E-05
 -0.135376	-2.525024E-05
 -0.130402	-2.507019E-05
 -0.125397	-2.492676E-05
 -0.120392	-2.478638E-05
 -0.115417	-2.461243E-05
 -0.110413	-2.445679E-05
 -0.105408	-2.430725E-05
 -0.100433	-2.416077E-05
 -0.095428	-2.398987E-05
 -0.090454	-2.385254E-05
 -0.085449	-2.368164E-05
 -0.080475	-2.353210E-05
 -0.075470	-2.334900E-05
 -0.070496	-2.317200E-05
 -0.065491	-2.298584E-05
 -0.060486	-2.277527E-05
 -0.055511	-2.255859E-05
 -0.050507	-2.231750E-05
 -0.045596	-2.203674E-05
 -0.040601	-2.174377E-05
 -0.035608	-2.143555E-05
 -0.030612	-2.106018E-05
 -0.025623	-2.064209E-05
 -0.020630	-2.020264E-05
 -0.015634	-1.965942E-05
 -0.010641	-1.905823E-05
 -0.005652	-1.841736E-05
 -0.000659	-1.765747E-05

 Potential	  Scan 5   
 0.004333	-1.675415E-05
 0.009326	-1.573792E-05
 0.014316	-1.460571E-05
 0.019308	-1.321716E-05
 0.024301	-1.172791E-05
 0.029294	-9.942627E-06
 0.034283	-7.925415E-06
 0.039270	-5.621338E-06
 0.044257	-2.943115E-06
 0.049246	1.007080E-07
 0.054260	3.609314E-06
 0.059265	7.553101E-06
 0.064270	1.201782E-05
 0.069244	1.700439E-05
 0.074219	2.256165E-05
 0.079224	2.869263E-05
 0.084198	3.546448E-05
 0.089203	4.281921E-05
 0.094177	5.078125E-05
 0.099182	5.935669E-05
 0.104156	6.851196E-05
 0.109161	7.818604E-05
 0.114136	8.843994E-05
 0.119110	9.915161E-05
 0.124115	1.103821E-04
 0.129120	1.219788E-04
 0.134094	1.338806E-04
 0.139099	1.461182E-04
 0.144073	1.586304E-04
 0.149078	1.713562E-04
 0.154053	1.841736E-04
 0.159058	1.970520E-04
 0.164063	2.099304E-04
 0.169037	2.226868E-04
 0.174042	2.353210E-04
 0.179047	2.476807E-04
 0.184021	2.596741E-04
 0.189026	2.713013E-04
 0.194031	2.823792E-04
 0.199005	2.927856E-04
 0.204010	3.024902E-04
 0.209015	3.117065E-04
 0.213989	3.193970E-04
 0.218994	3.260803E-04
 0.223969	3.315125E-04
 0.228973	3.355408E-04
 0.233978	3.380432E-04
 0.238953	3.388672E-04
 0.243958	3.379822E-04
 0.248962	3.353271E-04
 0.253937	3.309326E-04
 0.258942	3.249512E-04
 0.263947	3.175964E-04
 0.268921	3.091736E-04
 0.273926	2.999878E-04
 0.278931	2.904663E-04
 0.283905	2.808533E-04
 0.288910	2.714539E-04
 0.293884	2.624207E-04
 0.298889	2.538757E-04
 0.303864	2.458801E-04
 0.308868	2.384644E-04
 0.313873	2.315674E-04
 0.318848	2.251892E-04
 0.323822	2.192383E-04
 0.328827	2.137451E-04
 0.333832	2.086487E-04
 0.338806	2.038879E-04
 0.343811	1.994629E-04
 0.348785	1.952820E-04
 0.353790	1.913757E-04
 0.358765	1.876831E-04
 0.363770	1.841736E-04
 0.368744	1.808777E-04
 0.373749	1.777344E-04
 0.378723	1.747742E-04
 0.383728	1.719055E-04
 0.388733	1.692200E-04
 0.393707	1.666260E-04
 0.398712	1.641541E-04
 0.403687	1.617432E-04
 0.408661	1.594543E-04
 0.413666	1.572266E-04
 0.418671	1.550598E-04
 0.423645	1.530151E-04
 0.428650	1.510315E-04
 0.433624	1.490479E-04
 0.438629	1.471558E-04
 0.443634	1.452942E-04
 0.448608	1.434937E-04
 0.453583	1.416931E-04
 0.458588	1.399536E-04
 0.463562	1.382446E-04
 0.468567	1.365662E-04
 0.473572	1.348877E-04
 0.478546	1.332397E-04
 0.483551	1.316528E-04
 0.488525	1.300659E-04
 0.493500	1.285095E-04
 0.498505	1.269531E-04
 0.500183	1.200256E-04
 0.494751	1.033630E-04
 0.489746	9.609985E-05
 0.484741	9.100342E-05
 0.479736	8.697510E-05
 0.474731	8.361816E-05
 0.469727	8.065796E-05
 0.464722	7.800293E-05
 0.459717	7.556152E-05
 0.454712	7.330322E-05
 0.449707	7.119751E-05
 0.444702	6.921387E-05
 0.439697	6.729126E-05
 0.434692	6.546021E-05
 0.429688	6.365967E-05
 0.424683	6.195068E-05
 0.419678	6.024170E-05
 0.414673	5.865479E-05
 0.409698	5.703735E-05
 0.404694	5.548096E-05
 0.399689	5.395508E-05
 0.394684	5.239868E-05
 0.389679	5.087280E-05
 0.384674	4.947510E-05
 0.379669	4.798279E-05
 0.374664	4.649353E-05
 0.369659	4.501953E-05
 0.364685	4.355164E-05
 0.359680	4.207153E-05
 0.354675	3.946228E-05
 0.349670	3.890686E-05
 0.344666	3.747559E-05
 0.339661	3.597412E-05
 0.334686	3.446045E-05
 0.329651	3.293762E-05
 0.324677	3.139343E-05
 0.319672	2.983398E-05
 0.314667	2.820740E-05
 0.309662	2.655945E-05
 0.304657	2.489014E-05
 0.299652	2.311707E-05
 0.294647	2.130737E-05
 0.289673	1.938171E-05
 0.284668	1.738892E-05
 0.279663	1.529236E-05
 0.274658	1.304626E-05
 0.269653	1.069031E-05
 0.264679	8.142090E-06
 0.259674	5.410767E-06
 0.254669	2.483826E-06
 0.249664	-7.086182E-07
 0.244659	-4.172668E-06
 0.239685	-7.919312E-06
 0.234680	-1.203003E-05
 0.229675	-1.645508E-05
 0.224670	-2.131653E-05
 0.219696	-2.655945E-05
 0.214691	-3.227844E-05
 0.209686	-3.844604E-05
 0.204681	-4.511414E-05
 0.199677	-5.230713E-05
 0.194702	-5.999756E-05
 0.189697	-6.811523E-05
 0.184692	-7.681274E-05
 0.179688	-8.596802E-05
 0.174683	-9.555054E-05
 0.169708	-1.056519E-04
 0.164703	-1.160583E-04
 0.159698	-1.268921E-04
 0.154694	-1.380310E-04
 0.149689	-1.494446E-04
 0.144714	-1.610413E-04
 0.139709	-1.727905E-04
 0.134705	-1.846619E-04
 0.129700	-1.964722E-04
 0.124695	-2.082825E-04
 0.119690	-2.199097E-04
 0.114716	-2.313538E-04
 0.109711	-2.424622E-04
 0.104706	-2.532043E-04
 0.099701	-2.633667E-04
 0.094727	-2.729492E-04
 0.089722	-2.817383E-04
 0.084717	-2.896423E-04
 0.079712	-2.965088E-04
 0.074707	-3.021545E-04
 0.069702	-3.065186E-04
 0.064697	-3.092041E-04
 0.059692	-3.102722E-04
 0.054688	-3.094788E-04
 0.049683	-3.067017E-04
 0.044656	-3.020325E-04
 0.039651	-2.955627E-04
 0.034644	-2.876282E-04
 0.029633	-2.785339E-04
 0.024628	-2.687683E-04
 0.019620	-2.587280E-04
 0.014618	-2.487793E-04
 0.009610	-2.391663E-04
 0.004611	-2.300720E-04
 -0.000391	-2.216797E-04
 -0.005389	-2.138062E-04
 -0.010397	-2.067566E-04
 -0.015396	-2.001648E-04
 -0.020401	-1.940918E-04
 -0.025400	-1.885681E-04
 -0.030405	-1.834717E-04
 -0.035406	-1.787415E-04
 -0.040405	-1.743774E-04
 -0.045407	-1.703491E-04
 -0.050354	-1.665955E-04
 -0.055359	-1.630859E-04
 -0.060364	-1.598206E-04
 -0.065369	-1.567993E-04
 -0.070343	-1.539612E-04
 -0.075348	-1.512756E-04
 -0.080353	-1.487427E-04
 -0.085358	-1.464233E-04
 -0.090363	-1.441650E-04
 -0.095337	-1.420898E-04
 -0.100342	-1.401062E-04
 -0.105347	-1.382141E-04
 -0.110352	-1.364441E-04
 -0.115356	-1.347351E-04
 -0.120361	-1.331482E-04
 -0.125336	-1.316223E-04
 -0.130371	-1.301880E-04
 -0.135345	-1.287842E-04
 -0.140350	-1.274719E-04
 -0.145355	-1.262512E-04
 -0.150360	-1.250610E-04
 -0.155365	-1.239014E-04
 -0.160339	-1.228333E-04
 -0.165344	-1.217957E-04
 -0.170349	-1.207886E-04
 -0.175354	-1.198120E-04
 -0.180328	-1.188965E-04
 -0.185333	-1.180115E-04
 -0.190338	-1.172180E-04
 -0.195343	-1.163940E-04
 -0.200348	-1.156311E-04
 -0.205353	-1.148987E-04
 -0.210358	-1.142273E-04
 -0.215332	-1.135254E-04
 -0.220337	-1.128540E-04
 -0.225342	-1.122742E-04
 -0.230347	-1.116638E-04
 -0.235352	-1.111145E-04
 -0.240356	-1.105652E-04
 -0.245331	-1.100464E-04
 -0.250336	-1.095886E-04
 -0.255341	-1.091003E-04
 -0.260345	-1.086426E-04
 -0.265350	-1.082458E-04
 -0.270325	-1.078186E-04
 -0.275330	-1.074524E-04
 -0.280334	-1.070862E-04
 -0.285339	-1.067505E-04
 -0.290344	-1.064148E-04
 -0.295349	-1.061096E-04
 -0.297394	-1.018066E-04
 -0.292389	-6.045532E-05
 -0.287384	-4.536133E-05
 -0.282379	-3.941345E-05
 -0.277374	-3.674927E-05
 -0.272369	-3.529358E-05
 -0.267365	-3.431091E-05
 -0.262360	-3.360901E-05
 -0.257385	-3.256226E-05
 -0.252380	-3.240662E-05
 -0.247375	-3.198242E-05
 -0.242371	-3.157349E-05
 -0.237396	-3.118896E-05
 -0.232391	-3.079834E-05
 -0.227386	-3.045654E-05
 -0.222412	-3.010254E-05
 -0.217407	-2.980652E-05
 -0.212402	-2.951355E-05
 -0.207428	-2.919006E-05
 -0.202423	-2.893982E-05
 -0.197449	-2.865295E-05
 -0.192444	-2.842407E-05
 -0.187439	-2.816162E-05
 -0.182434	-2.796021E-05
 -0.177460	-2.773132E-05
 -0.172455	-2.750244E-05
 -0.167450	-2.728271E-05
 -0.162476	-2.709351E-05
 -0.157471	-2.690735E-05
 -0.152496	-2.672119E-05
 -0.147491	-2.653503E-05
 -0.142517	-2.635803E-05
 -0.137512	-2.619324E-05
 -0.132507	-2.601318E-05
 -0.127533	-2.585754E-05
 -0.122528	-2.569580E-05
 -0.117554	-2.553101E-05
 -0.112549	-2.536926E-05
 -0.107574	-2.521057E-05
 -0.102570	-2.506714E-05
 -0.097565	-2.490234E-05
 -0.092590	-2.477417E-05
 -0.087585	-2.458801E-05
 -0.082611	-2.443237E-05
 -0.077606	-2.424622E-05
 -0.072632	-2.408447E-05
 -0.067627	-2.389832E-05
 -0.062622	-2.370605E-05
 -0.057648	-2.348022E-05
 -0.052643	-2.326050E-05
 -0.047739	-2.298584E-05
 -0.042740	-2.271423E-05
 -0.037747	-2.239075E-05
 -0.032758	-2.203979E-05
 -0.027768	-2.163391E-05
 -0.022766	-2.119141E-05
 -0.017776	-2.069702E-05
 -0.012784	-2.011719E-05
 -0.007794	-1.949463E-05
 -0.002795	-1.868591E-05
