Date: 15-08-25
Time: 14:34:07 PM

Exp. Conditions:
Cyclic voltammetry
Start potential (V) = .0000
First vertex potential (V) = .5000
Second vertex potential (V) = -.3000
Step potential (V) = .00500
Scan rate (V/s) = .39987
Equilibration time (s) = 
Number of Data Points =  320 

 Potential	  Scan 1   
 0.002142	-6.820679E-06
 0.009708	5.746460E-06
 0.014694	7.015991E-06
 0.019690	8.053589E-06
 0.024680	9.167480E-06
 0.029678	1.041870E-05
 0.034671	1.182556E-05
 0.039661	1.342163E-05
 0.044662	1.528931E-05
 0.049652	1.746521E-05
 0.054657	1.997681E-05
 0.059662	2.296753E-05
 0.064667	2.634888E-05
 0.069672	3.032837E-05
 0.074646	3.491211E-05
 0.079620	4.013977E-05
 0.084625	4.609680E-05
 0.089630	5.276489E-05
 0.094604	6.030273E-05
 0.099609	6.869507E-05
 0.104614	7.788086E-05
 0.109589	8.792114E-05
 0.114594	9.881592E-05
 0.119568	1.105347E-04
 0.124573	1.230164E-04
 0.129547	1.361389E-04
 0.134552	1.499634E-04
 0.139526	1.642456E-04
 0.144531	1.790161E-04
 0.149506	1.941223E-04
 0.154510	2.093811E-04
 0.159515	2.247314E-04
 0.164490	2.400208E-04
 0.169495	2.550049E-04
 0.174469	2.696228E-04
 0.179443	2.837219E-04
 0.184448	2.970276E-04
 0.189453	3.094177E-04
 0.194458	3.208618E-04
 0.199432	3.307190E-04
 0.204407	3.390808E-04
 0.209412	3.457336E-04
 0.214386	3.504639E-04
 0.219391	3.532104E-04
 0.224365	3.538208E-04
 0.229370	3.522949E-04
 0.234375	3.487854E-04
 0.239349	3.433838E-04
 0.244324	3.363953E-04
 0.249329	3.282471E-04
 0.254333	3.191528E-04
 0.259308	3.096008E-04
 0.264313	2.998962E-04
 0.269287	2.902527E-04
 0.274292	2.809753E-04
 0.279266	2.721252E-04
 0.284271	2.637634E-04
 0.289246	2.558899E-04
 0.294250	2.485657E-04
 0.299225	2.417603E-04
 0.304230	2.353821E-04
 0.309204	2.294922E-04
 0.314209	2.239685E-04
 0.319183	2.188416E-04
 0.324188	2.140808E-04
 0.329193	2.095642E-04
 0.334167	2.053528E-04
 0.339172	2.013855E-04
 0.344147	1.976318E-04
 0.349152	1.940918E-04
 0.354126	1.907349E-04
 0.359131	1.875610E-04
 0.364105	1.845398E-04
 0.369110	1.816406E-04
 0.374084	1.788940E-04
 0.379089	1.762390E-04
 0.384064	1.737061E-04
 0.389069	1.712646E-04
 0.394073	1.689148E-04
 0.399048	1.666565E-04
 0.404053	1.644592E-04
 0.409027	1.623535E-04
 0.414001	1.603088E-04
 0.419006	1.582947E-04
 0.423981	1.563110E-04
 0.428986	1.543579E-04
 0.433990	1.524963E-04
 0.438965	1.506348E-04
 0.443970	1.488037E-04
 0.448944	1.470337E-04
 0.453949	1.452332E-04
 0.458923	1.434937E-04
 0.463928	1.417542E-04
 0.468903	1.400452E-04
 0.473907	1.383362E-04
 0.478882	1.366577E-04
 0.483887	1.350098E-04
 0.488861	1.333618E-04
 0.493866	1.317749E-04
 0.498840	1.301575E-04
 0.500488	1.222839E-04
 0.495087	1.095886E-04
 0.490082	1.042480E-04
 0.485077	1.003723E-04
 0.480072	9.722900E-05
 0.475067	9.448242E-05
 0.470062	9.204102E-05
 0.465057	8.978271E-05
 0.460052	8.770752E-05
 0.455048	8.572388E-05
 0.450043	8.386230E-05
 0.445038	8.203125E-05
 0.440033	8.029175E-05
 0.435028	7.861328E-05
 0.429993	7.696533E-05
 0.425018	7.534790E-05
 0.420013	7.376099E-05
 0.415009	7.217407E-05
 0.410004	7.061768E-05
 0.404999	6.909180E-05
 0.399994	6.756592E-05
 0.394989	6.604004E-05
 0.389984	6.454468E-05
 0.384979	6.301880E-05
 0.379974	6.149292E-05
 0.374969	5.996704E-05
 0.369965	5.841064E-05
 0.364960	5.688477E-05
 0.359955	5.535889E-05
 0.354980	5.380249E-05
 0.349976	5.221558E-05
 0.344940	5.062866E-05
 0.339966	4.904175E-05
 0.334961	4.738464E-05
 0.329956	4.568787E-05
 0.324951	4.396057E-05
 0.319946	4.218445E-05
 0.314941	4.037170E-05
 0.309937	3.747864E-05
 0.304932	3.635254E-05
 0.299927	3.434143E-05
 0.294922	3.222961E-05
 0.289917	2.998352E-05
 0.284912	2.762756E-05
 0.279907	2.510681E-05
 0.274902	2.240295E-05
 0.269928	1.952515E-05
 0.264923	1.641541E-05
 0.259918	1.301575E-05
 0.254913	9.341431E-06
 0.249908	5.310059E-06
 0.244904	9.121704E-07
 0.239899	-3.933411E-06
 0.234894	-9.231567E-06
 0.229889	-1.509094E-05
 0.224884	-2.149658E-05
 0.219879	-2.847900E-05
 0.214905	-3.612976E-05
 0.209900	-4.445801E-05
 0.204865	-5.343628E-05
 0.199890	-6.314087E-05
 0.194885	-7.354736E-05
 0.189880	-8.459473E-05
 0.184875	-9.628296E-05
 0.179871	-1.085815E-04
 0.174866	-1.213989E-04
 0.169861	-1.345825E-04
 0.164856	-1.481628E-04
 0.159851	-1.619568E-04
 0.154877	-1.759338E-04
 0.149872	-1.898804E-04
 0.144867	-2.036438E-04
 0.139862	-2.170410E-04
 0.134857	-2.299805E-04
 0.129852	-2.421875E-04
 0.124847	-2.535095E-04
 0.119843	-2.637634E-04
 0.114838	-2.727966E-04
 0.109833	-2.803040E-04
 0.104828	-2.861023E-04
 0.099854	-2.900391E-04
 0.094849	-2.919617E-04
 0.089844	-2.917480E-04
 0.084839	-2.892456E-04
 0.079834	-2.845154E-04
 0.074829	-2.778931E-04
 0.069824	-2.696533E-04
 0.064850	-2.603149E-04
 0.059845	-2.503967E-04
 0.054840	-2.403564E-04
 0.049835	-2.304077E-04
 0.044809	-2.208557E-04
 0.039807	-2.118225E-04
 0.034802	-2.033691E-04
 0.029803	-1.955261E-04
 0.024799	-1.882629E-04
 0.019791	-1.815796E-04
 0.014792	-1.753845E-04
 0.009787	-1.696777E-04
 0.004782	-1.643677E-04
 -0.000217	-1.595154E-04
 -0.005215	-1.548767E-04
 -0.010223	-1.507874E-04
 -0.015225	-1.468506E-04
 -0.020233	-1.432190E-04
 -0.025229	-1.398315E-04
 -0.030237	-1.366577E-04
 -0.035239	-1.336670E-04
 -0.040244	-1.309204E-04
 -0.045242	-1.282959E-04
 -0.050201	-1.258545E-04
 -0.055176	-1.235657E-04
 -0.060181	-1.213989E-04
 -0.065186	-1.193848E-04
 -0.070190	-1.174622E-04
 -0.075195	-1.156616E-04
 -0.080200	-1.138611E-04
 -0.085205	-1.122742E-04
 -0.090210	-1.107483E-04
 -0.095184	-1.092529E-04
 -0.100189	-1.078796E-04
 -0.105194	-1.065674E-04
 -0.110199	-1.052856E-04
 -0.115204	-1.040649E-04
 -0.120209	-1.029663E-04
 -0.125214	-1.018372E-04
 -0.130219	-1.007996E-04
 -0.135223	-9.979248E-05
 -0.140228	-9.884644E-05
 -0.145203	-9.793091E-05
 -0.150208	-9.704590E-05
 -0.155212	-9.619141E-05
 -0.160217	-9.539795E-05
 -0.165222	-9.460449E-05
 -0.170227	-9.390259E-05
 -0.175232	-9.317017E-05
 -0.180206	-9.246826E-05
 -0.185211	-9.179688E-05
 -0.190216	-9.118652E-05
 -0.195221	-9.057617E-05
 -0.200226	-8.999634E-05
 -0.205231	-8.944702E-05
 -0.210236	-8.886719E-05
 -0.215240	-8.837891E-05
 -0.220215	-8.786011E-05
 -0.225220	-8.740234E-05
 -0.230225	-8.697510E-05
 -0.235229	-8.654785E-05
 -0.240234	-8.609009E-05
 -0.245239	-8.566284E-05
 -0.250244	-8.532715E-05
 -0.255249	-8.496094E-05
 -0.260254	-8.462524E-05
 -0.265259	-8.425903E-05
 -0.270264	-8.395386E-05
 -0.275238	-8.364868E-05
 -0.280243	-8.337402E-05
 -0.285248	-8.312988E-05
 -0.290253	-8.288574E-05
 -0.295227	-8.267212E-05
 -0.298279	-8.139038E-05
 -0.293304	-3.530273E-05
 -0.288300	-2.868347E-05
 -0.283295	-2.708130E-05
 -0.278320	-2.620544E-05
 -0.273315	-2.553406E-05
 -0.268341	-2.503357E-05
 -0.263336	-2.459717E-05
 -0.258331	-2.413940E-05
 -0.253357	-2.375488E-05
 -0.248352	-2.341919E-05
 -0.243347	-2.307129E-05
 -0.238373	-2.273865E-05
 -0.233368	-2.243042E-05
 -0.228363	-2.217712E-05
 -0.223389	-2.191772E-05
 -0.218384	-2.169495E-05
 -0.213379	-2.143860E-05
 -0.208405	-2.119751E-05
 -0.203400	-2.098083E-05
 -0.198425	-2.077942E-05
 -0.193420	-2.058411E-05
 -0.188416	-2.040100E-05
 -0.183411	-2.021484E-05
 -0.178436	-2.007751E-05
 -0.173431	-1.987305E-05
 -0.168457	-1.969910E-05
 -0.163483	-1.957092E-05
 -0.158478	-1.940002E-05
 -0.153473	-1.922913E-05
 -0.148499	-1.909790E-05
 -0.143494	-1.897583E-05
 -0.138489	-1.884460E-05
 -0.133514	-1.872559E-05
 -0.128510	-1.856384E-05
 -0.123505	-1.846924E-05
 -0.118530	-1.832275E-05
 -0.113556	-1.821289E-05
 -0.108551	-1.810608E-05
 -0.103546	-1.794739E-05
 -0.098572	-1.784973E-05
 -0.093567	-1.770325E-05
 -0.088593	-1.759338E-05
 -0.083588	-1.743469E-05
 -0.078613	-1.735229E-05
 -0.073608	-1.718750E-05
 -0.068604	-1.706238E-05
 -0.063629	-1.694336E-05
 -0.058624	-1.674194E-05
 -0.053619	-1.655579E-05
 -0.048715	-1.637268E-05
 -0.043723	-1.615601E-05
 -0.038730	-1.592407E-05
 -0.033740	-1.568604E-05
 -0.028745	-1.540527E-05
 -0.023746	-1.509705E-05
 -0.018759	-1.469727E-05
 -0.013763	-1.428223E-05
 -0.008774	-1.382141E-05
 -0.003766	-1.316833E-05

 Potential	  Scan 2   
 0.001215	-1.268921E-05
 0.006223	-1.202393E-05
 0.011200	-1.133118E-05
 0.016199	-1.038513E-05
 0.021188	-9.362793E-06
 0.026184	-8.163452E-06
 0.031174	-6.787109E-06
 0.036166	-5.206299E-06
 0.041156	-3.410645E-06
 0.046149	-1.296082E-06
 0.051178	1.174011E-06
 0.056152	4.031982E-06
 0.061157	7.363892E-06
 0.066162	1.121216E-05
 0.071136	1.559143E-05
 0.076141	2.064514E-05
 0.081116	2.634583E-05
 0.086121	3.281555E-05
 0.091125	4.007263E-05
 0.096100	4.815674E-05
 0.101105	5.700684E-05
 0.106110	6.674194E-05
 0.111084	7.739258E-05
 0.116058	8.880615E-05
 0.121063	1.009521E-04
 0.126038	1.138916E-04
 0.131042	1.274719E-04
 0.136017	1.416016E-04
 0.141022	1.561890E-04
 0.146027	1.712036E-04
 0.151001	1.864929E-04
 0.156006	2.018738E-04
 0.160980	2.172546E-04
 0.165985	2.324219E-04
 0.170990	2.473145E-04
 0.175964	2.616577E-04
 0.180939	2.753906E-04
 0.185944	2.882385E-04
 0.190948	3.001099E-04
 0.195923	3.108826E-04
 0.200928	3.200073E-04
 0.205902	3.275146E-04
 0.210907	3.331909E-04
 0.215881	3.369751E-04
 0.220886	3.386536E-04
 0.225861	3.382263E-04
 0.230865	3.357239E-04
 0.235840	3.312378E-04
 0.240845	3.250732E-04
 0.245819	3.174744E-04
 0.250824	3.088684E-04
 0.255829	2.995605E-04
 0.260803	2.899170E-04
 0.265808	2.803040E-04
 0.270782	2.708435E-04
 0.275757	2.617798E-04
 0.280762	2.531738E-04
 0.285767	2.450867E-04
 0.290741	2.374878E-04
 0.295746	2.304688E-04
 0.300720	2.238770E-04
 0.305725	2.177429E-04
 0.310699	2.120667E-04
 0.315704	2.067261E-04
 0.320709	2.017517E-04
 0.325684	1.971130E-04
 0.330688	1.927490E-04
 0.335663	1.886597E-04
 0.340668	1.848145E-04
 0.345642	1.811523E-04
 0.350647	1.777344E-04
 0.355621	1.744385E-04
 0.360626	1.713257E-04
 0.365601	1.683960E-04
 0.370605	1.655579E-04
 0.375610	1.629028E-04
 0.380585	1.603088E-04
 0.385559	1.578369E-04
 0.390564	1.554871E-04
 0.395569	1.531372E-04
 0.400543	1.509399E-04
 0.405518	1.488342E-04
 0.410522	1.467896E-04
 0.415497	1.447754E-04
 0.420502	1.428528E-04
 0.425476	1.409607E-04
 0.430481	1.391296E-04
 0.435455	1.373291E-04
 0.440460	1.355591E-04
 0.445465	1.338501E-04
 0.450470	1.322021E-04
 0.455444	1.305237E-04
 0.460419	1.289063E-04
 0.465424	1.272888E-04
 0.470398	1.257019E-04
 0.475403	1.241455E-04
 0.480377	1.226196E-04
 0.485382	1.211243E-04
 0.490356	1.196594E-04
 0.495361	1.181946E-04
 0.496704	1.109619E-04
 0.491699	9.808350E-05
 0.486694	9.280396E-05
 0.481689	8.905029E-05
 0.476685	8.599854E-05
 0.471680	8.334351E-05
 0.466675	8.099365E-05
 0.461670	7.882690E-05
 0.456665	7.684326E-05
 0.451660	7.495117E-05
 0.446655	7.315063E-05
 0.441650	7.141113E-05
 0.436646	6.976318E-05
 0.431641	6.811523E-05
 0.426636	6.655884E-05
 0.421631	6.500244E-05
 0.416626	6.347656E-05
 0.411652	6.198120E-05
 0.406616	6.045532E-05
 0.401611	5.899048E-05
 0.396637	5.752563E-05
 0.391602	5.606079E-05
 0.386597	5.459595E-05
 0.381622	5.313110E-05
 0.376617	5.169678E-05
 0.371613	5.020142E-05
 0.366608	4.876709E-05
 0.361603	4.725952E-05
 0.356598	4.575195E-05
 0.351593	4.421387E-05
 0.346588	4.267273E-05
 0.341583	4.112854E-05
 0.336578	3.851929E-05
 0.331573	3.770142E-05
 0.326569	3.609314E-05
 0.321564	3.437500E-05
 0.316589	3.262634E-05
 0.311554	3.083496E-05
 0.306549	2.893677E-05
 0.301544	2.699585E-05
 0.296570	2.493591E-05
 0.291565	2.282104E-05
 0.286560	2.055664E-05
 0.281555	1.815186E-05
 0.276550	1.558838E-05
 0.271545	1.280823E-05
 0.266541	9.848022E-06
 0.261536	6.643677E-06
 0.256531	3.132629E-06
 0.251526	-6.628418E-07
 0.246521	-4.840088E-06
 0.241516	-9.439087E-06
 0.236511	-1.445923E-05
 0.231537	-2.002258E-05
 0.226532	-2.607117E-05
 0.221527	-3.278198E-05
 0.216522	-4.007263E-05
 0.211517	-4.803772E-05
 0.206512	-5.670166E-05
 0.201508	-6.597900E-05
 0.196503	-7.604980E-05
 0.191498	-8.673096E-05
 0.186493	-9.805298E-05
 0.181488	-1.100464E-04
 0.176483	-1.226196E-04
 0.171478	-1.355591E-04
 0.166504	-1.489868E-04
 0.161499	-1.626282E-04
 0.156494	-1.765137E-04
 0.151489	-1.903687E-04
 0.146484	-2.041626E-04
 0.141479	-2.177124E-04
 0.136475	-2.308044E-04
 0.131470	-2.433167E-04
 0.126465	-2.549744E-04
 0.121490	-2.657166E-04
 0.116486	-2.752991E-04
 0.111481	-2.833862E-04
 0.106476	-2.899170E-04
 0.101471	-2.946777E-04
 0.096466	-2.974548E-04
 0.091492	-2.981262E-04
 0.086456	-2.966614E-04
 0.081451	-2.929382E-04
 0.076477	-2.870789E-04
 0.071472	-2.795105E-04
 0.066467	-2.705688E-04
 0.061462	-2.608948E-04
 0.056458	-2.508850E-04
 0.051453	-2.409363E-04
 0.046439	-2.311707E-04
 0.041437	-2.219238E-04
 0.036435	-2.132263E-04
 0.031427	-2.051086E-04
 0.026431	-1.976013E-04
 0.021423	-1.906738E-04
 0.016422	-1.842651E-04
 0.011420	-1.783447E-04
 0.006433	-1.727600E-04
 0.001413	-1.678772E-04
 -0.003577	-1.631470E-04
 -0.008594	-1.588135E-04
 -0.013596	-1.547546E-04
 -0.018597	-1.510010E-04
 -0.023599	-1.474609E-04
 -0.028601	-1.441345E-04
 -0.033606	-1.411438E-04
 -0.038614	-1.382141E-04
 -0.043607	-1.354980E-04
 -0.048618	-1.330261E-04
 -0.053558	-1.305847E-04
 -0.058563	-1.283264E-04
 -0.063568	-1.262207E-04
 -0.068573	-1.242371E-04
 -0.073578	-1.223755E-04
 -0.078583	-1.205750E-04
 -0.083588	-1.188660E-04
 -0.088562	-1.172485E-04
 -0.093567	-1.157227E-04
 -0.098572	-1.142578E-04
 -0.103577	-1.128845E-04
 -0.108582	-1.116028E-04
 -0.113586	-1.103210E-04
 -0.118561	-1.091003E-04
 -0.123596	-1.079712E-04
 -0.128601	-1.068726E-04
 -0.133575	-1.058350E-04
 -0.138580	-1.047974E-04
 -0.143585	-1.038818E-04
 -0.148590	-1.029358E-04
 -0.153595	-1.020508E-04
 -0.158600	-1.011963E-04
 -0.163605	-1.003723E-04
 -0.168610	-9.960938E-05
 -0.173584	-9.884644E-05
 -0.178589	-9.814453E-05
 -0.183594	-9.744263E-05
 -0.188599	-9.680176E-05
 -0.193604	-9.613037E-05
 -0.198608	-9.552002E-05
 -0.203613	-9.497070E-05
 -0.208618	-9.439087E-05
 -0.213623	-9.384155E-05
 -0.218628	-9.335327E-05
 -0.223602	-9.283447E-05
 -0.228607	-9.237671E-05
 -0.233612	-9.188843E-05
 -0.238617	-9.149170E-05
 -0.243622	-9.106445E-05
 -0.248627	-9.063721E-05
 -0.253632	-9.027100E-05
 -0.258606	-8.993530E-05
 -0.263641	-8.953857E-05
 -0.268616	-8.920288E-05
 -0.273621	-8.886719E-05
 -0.278625	-8.859253E-05
 -0.283630	-8.828735E-05
 -0.288635	-8.804321E-05
 -0.293640	-8.776855E-05
 -0.298218	-8.752441E-05
 -0.293457	-4.348450E-05
 -0.288452	-3.435669E-05
 -0.283447	-3.241577E-05
 -0.278442	-3.144226E-05
 -0.273468	-3.079224E-05
 -0.268463	-3.018188E-05
 -0.263458	-2.969055E-05
 -0.258484	-2.926025E-05
 -0.253479	-2.881775E-05
 -0.248505	-2.848511E-05
 -0.243500	-2.810669E-05
 -0.238495	-2.778015E-05
 -0.233521	-2.745667E-05
 -0.228516	-2.716675E-05
 -0.223511	-2.685547E-05
 -0.218536	-2.658997E-05
 -0.213531	-2.634583E-05
 -0.208557	-2.611084E-05
 -0.203552	-2.587280E-05
 -0.198547	-2.562256E-05
 -0.193573	-2.539978E-05
 -0.188568	-2.521362E-05
 -0.183563	-2.502441E-05
 -0.178589	-2.485962E-05
 -0.173584	-2.464294E-05
 -0.168610	-2.449341E-05
 -0.163605	-2.429810E-05
 -0.158600	-2.413940E-05
 -0.153625	-2.395935E-05
 -0.148621	-2.380676E-05
 -0.143646	-2.366333E-05
 -0.138641	-2.347412E-05
 -0.133636	-2.333984E-05
 -0.128662	-2.321167E-05
 -0.123657	-2.306213E-05
 -0.118652	-2.293396E-05
 -0.113678	-2.281189E-05
 -0.108704	-2.264709E-05
 -0.103699	-2.246399E-05
 -0.098724	-2.232971E-05
 -0.093719	-2.221680E-05
 -0.088715	-2.209473E-05
 -0.083740	-2.193604E-05
 -0.078766	-2.181396E-05
 -0.073761	-2.164307E-05
 -0.068787	-2.147217E-05
 -0.063782	-2.132263E-05
 -0.058777	-2.113342E-05
 -0.053802	-2.091675E-05
 -0.048868	-2.073059E-05
 -0.043875	-2.049255E-05
 -0.038882	-2.023010E-05
 -0.033893	-1.997681E-05
 -0.028897	-1.963196E-05
 -0.023904	-1.930237E-05
 -0.018912	-1.893005E-05
 -0.013916	-1.851501E-05
 -0.008923	-1.803589E-05
 -0.003915	-1.740723E-05

 Potential	  Scan 3   
 0.001062	-1.690063E-05
 0.006070	-1.618347E-05
 0.011044	-1.544495E-05
 0.016046	-1.444702E-05
 0.021036	-1.342773E-05
 0.026028	-1.223755E-05
 0.031018	-1.087952E-05
 0.036011	-9.262085E-06
 0.041003	-7.366943E-06
 0.045996	-5.230713E-06
 0.051025	-2.747803E-06
 0.056000	1.199341E-07
 0.061005	3.505859E-06
 0.066010	7.357788E-06
 0.070984	1.182251E-05
 0.075989	1.687927E-05
 0.080963	2.263184E-05
 0.085968	2.912598E-05
 0.090942	3.642883E-05
 0.095947	4.455261E-05
 0.100952	5.346680E-05
 0.105927	6.326294E-05
 0.110931	7.391357E-05
 0.115906	8.538818E-05
 0.120911	9.756470E-05
 0.125916	1.105652E-04
 0.130890	1.241150E-04
 0.135864	1.383057E-04
 0.140869	1.529236E-04
 0.145844	1.679382E-04
 0.150848	1.832275E-04
 0.155853	1.986084E-04
 0.160828	2.139587E-04
 0.165833	2.291870E-04
 0.170807	2.440796E-04
 0.175781	2.583618E-04
 0.180786	2.720642E-04
 0.185791	2.849121E-04
 0.190765	2.966919E-04
 0.195770	3.072815E-04
 0.200775	3.165588E-04
 0.205750	3.240051E-04
 0.210754	3.296204E-04
 0.215729	3.332825E-04
 0.220734	3.348999E-04
 0.225708	3.343506E-04
 0.230713	3.318176E-04
 0.235687	3.272705E-04
 0.240692	3.210449E-04
 0.245667	3.134460E-04
 0.250671	3.047791E-04
 0.255646	2.954712E-04
 0.260651	2.858582E-04
 0.265625	2.762146E-04
 0.270630	2.667847E-04
 0.275604	2.577515E-04
 0.280609	2.491760E-04
 0.285583	2.410889E-04
 0.290588	2.335510E-04
 0.295593	2.265015E-04
 0.300568	2.199097E-04
 0.305542	2.138062E-04
 0.310547	2.081299E-04
 0.315552	2.028198E-04
 0.320526	1.978760E-04
 0.325531	1.932068E-04
 0.330505	1.888733E-04
 0.335510	1.847534E-04
 0.340485	1.808777E-04
 0.345490	1.772766E-04
 0.350494	1.738281E-04
 0.355469	1.705627E-04
 0.360443	1.674500E-04
 0.365448	1.644897E-04
 0.370422	1.616821E-04
 0.375427	1.589661E-04
 0.380402	1.563721E-04
 0.385406	1.539612E-04
 0.390411	1.515808E-04
 0.395386	1.492920E-04
 0.400360	1.470947E-04
 0.405365	1.449585E-04
 0.410370	1.429138E-04
 0.415344	1.408997E-04
 0.420349	1.389771E-04
 0.425323	1.370850E-04
 0.430298	1.352844E-04
 0.435303	1.334839E-04
 0.440308	1.317749E-04
 0.445282	1.300354E-04
 0.450287	1.283875E-04
 0.455261	1.267090E-04
 0.460266	1.250916E-04
 0.465240	1.235046E-04
 0.470245	1.219482E-04
 0.475220	1.203918E-04
 0.480225	1.188965E-04
 0.485199	1.174011E-04
 0.490204	1.159363E-04
 0.495178	1.145020E-04
 0.500488	1.130981E-04
 0.501404	1.040039E-04
 0.495911	9.326172E-05
 0.490906	8.834839E-05
 0.485870	8.477783E-05
 0.480896	8.187866E-05
 0.475891	7.931519E-05
 0.470856	7.708740E-05
 0.465881	7.498169E-05
 0.460846	7.308960E-05
 0.455872	7.125854E-05
 0.450867	6.951904E-05
 0.445862	6.787109E-05
 0.440857	6.625366E-05
 0.435852	6.466675E-05
 0.430817	6.314087E-05
 0.425812	6.161499E-05
 0.420837	6.015015E-05
 0.415802	5.871582E-05
 0.410828	5.728149E-05
 0.405823	5.584717E-05
 0.400818	5.441284E-05
 0.395813	5.300903E-05
 0.390808	5.157471E-05
 0.385803	5.017090E-05
 0.380798	4.883728E-05
 0.375793	4.739380E-05
 0.370789	4.597168E-05
 0.365784	4.455566E-05
 0.360779	4.307251E-05
 0.355774	4.158325E-05
 0.350769	3.914185E-05
 0.345764	3.837891E-05
 0.340759	3.688049E-05
 0.335754	3.528137E-05
 0.330750	3.367615E-05
 0.325745	3.204041E-05
 0.320770	3.036804E-05
 0.315765	2.862854E-05
 0.310760	2.683411E-05
 0.305756	2.499390E-05
 0.300751	2.306213E-05
 0.295746	2.102051E-05
 0.290741	1.888123E-05
 0.285736	1.664734E-05
 0.280731	1.421814E-05
 0.275726	1.167908E-05
 0.270721	8.929443E-06
 0.265717	5.981445E-06
 0.260712	2.745361E-06
 0.255737	-7.592773E-07
 0.250702	-4.595947E-06
 0.245697	-8.795166E-06
 0.240723	-1.336975E-05
 0.235718	-1.846008E-05
 0.230713	-2.401123E-05
 0.225708	-3.013306E-05
 0.220703	-3.683167E-05
 0.215698	-4.415894E-05
 0.210693	-5.215454E-05
 0.205688	-6.085205E-05
 0.200684	-7.022095E-05
 0.195679	-8.032227E-05
 0.190674	-9.103394E-05
 0.185699	-1.024475E-04
 0.180664	-1.144409E-04
 0.175659	-1.269226E-04
 0.170685	-1.399536E-04
 0.165680	-1.533508E-04
 0.160675	-1.670227E-04
 0.155670	-1.808777E-04
 0.150665	-1.946716E-04
 0.145660	-2.084045E-04
 0.140656	-2.218933E-04
 0.135651	-2.349243E-04
 0.130676	-2.473450E-04
 0.125671	-2.589417E-04
 0.120636	-2.694397E-04
 0.115662	-2.788696E-04
 0.110657	-2.867737E-04
 0.105652	-2.930908E-04
 0.100647	-2.976074E-04
 0.095642	-3.001709E-04
 0.090668	-3.006287E-04
 0.085663	-2.987061E-04
 0.080658	-2.948914E-04
 0.075653	-2.888489E-04
 0.070648	-2.810974E-04
 0.065643	-2.721252E-04
 0.060638	-2.623901E-04
 0.055634	-2.523499E-04
 0.050629	-2.423706E-04
 0.045615	-2.327271E-04
 0.040616	-2.235107E-04
 0.035608	-2.148743E-04
 0.030609	-2.068481E-04
 0.025607	-1.994019E-04
 0.020602	-1.925049E-04
 0.015598	-1.861572E-04
 0.010596	-1.802979E-04
 0.005600	-1.747742E-04
 0.000589	-1.698914E-04
 -0.004401	-1.651611E-04
 -0.009421	-1.608887E-04
 -0.014423	-1.568909E-04
 -0.019424	-1.531067E-04
 -0.024426	-1.496277E-04
 -0.029434	-1.463623E-04
 -0.034433	-1.433411E-04
 -0.039435	-1.404419E-04
 -0.044440	-1.377563E-04
 -0.049408	-1.352234E-04
 -0.054382	-1.328430E-04
 -0.059387	-1.306152E-04
 -0.064392	-1.284790E-04
 -0.069397	-1.264954E-04
 -0.074402	-1.246338E-04
 -0.079407	-1.228638E-04
 -0.084381	-1.211548E-04
 -0.089417	-1.195679E-04
 -0.094391	-1.180115E-04
 -0.099396	-1.165466E-04
 -0.104401	-1.151733E-04
 -0.109406	-1.140747E-04
 -0.114410	-1.126404E-04
 -0.119415	-1.113892E-04
 -0.124390	-1.102600E-04
 -0.129395	-1.091919E-04
 -0.134399	-1.080933E-04
 -0.139404	-1.070862E-04
 -0.144409	-1.061401E-04
 -0.149414	-1.052246E-04
 -0.154419	-1.043091E-04
 -0.159424	-1.034851E-04
 -0.164398	-1.026917E-04
 -0.169403	-1.018677E-04
 -0.174408	-1.011047E-04
 -0.179413	-1.003723E-04
 -0.184418	-9.970093E-05
 -0.189423	-9.902954E-05
 -0.194427	-9.835815E-05
 -0.199432	-9.777832E-05
 -0.204407	-9.713745E-05
 -0.209442	-9.664917E-05
 -0.214417	-9.606934E-05
 -0.219421	-9.555054E-05
 -0.224426	-9.506226E-05
 -0.229431	-9.457397E-05
 -0.234436	-9.408569E-05
 -0.239441	-9.365845E-05
 -0.244415	-9.323120E-05
 -0.249420	-9.283447E-05
 -0.254456	-9.246826E-05
 -0.259430	-9.207153E-05
 -0.264435	-9.170532E-05
 -0.269440	-9.133911E-05
 -0.274445	-9.103394E-05
 -0.279449	-9.072876E-05
 -0.284424	-9.045410E-05
 -0.289429	-9.017944E-05
 -0.294434	-8.993530E-05
 -0.298828	-8.966064E-05
 -0.293915	-4.492798E-05
 -0.288910	-3.624268E-05
 -0.283936	-3.443298E-05
 -0.278931	-3.351746E-05
 -0.273926	-3.283081E-05
 -0.268951	-3.226624E-05
 -0.263947	-3.059692E-05
 -0.258942	-3.127136E-05
 -0.253967	-3.097839E-05
 -0.248962	-3.053894E-05
 -0.243958	-3.020935E-05
 -0.238983	-2.987366E-05
 -0.233978	-2.956238E-05
 -0.228973	-2.922974E-05
 -0.223999	-2.898254E-05
 -0.218994	-2.868958E-05
 -0.213989	-2.841492E-05
 -0.209015	-2.819824E-05
 -0.204010	-2.797852E-05
 -0.199036	-2.773132E-05
 -0.194031	-2.749939E-05
 -0.189026	-2.726135E-05
 -0.184052	-2.705383E-05
 -0.179047	-2.687073E-05
 -0.174072	-2.669678E-05
 -0.169067	-2.648621E-05
 -0.164063	-2.630615E-05
 -0.159088	-2.614136E-05
 -0.154083	-2.596130E-05
 -0.149109	-2.578430E-05
 -0.144104	-2.560120E-05
 -0.139130	-2.545471E-05
 -0.134125	-2.532959E-05
 -0.129120	-2.517090E-05
 -0.124146	-2.504578E-05
 -0.119141	-2.492371E-05
 -0.114166	-2.474365E-05
 -0.109161	-2.461853E-05
 -0.104156	-2.448120E-05
 -0.099182	-2.434082E-05
 -0.094177	-2.416992E-05
 -0.089203	-2.405090E-05
 -0.084198	-2.390442E-05
 -0.079224	-2.373962E-05
 -0.074219	-2.356873E-05
 -0.069244	-2.343140E-05
 -0.064240	-2.327576E-05
 -0.059235	-2.304382E-05
 -0.054260	-2.285767E-05
 -0.049332	-2.263489E-05
 -0.044339	-2.241516E-05
 -0.039346	-2.217407E-05
 -0.034357	-2.190247E-05
 -0.029361	-2.157288E-05
 -0.024365	-2.121887E-05
 -0.019379	-2.085876E-05
 -0.014380	-2.042542E-05
 -0.009387	-1.990967E-05
 -0.004379	-1.934204E-05

 Potential	  Scan 4   
 0.000601	-1.880188E-05
 0.005600	-1.809998E-05
 0.010583	-1.737976E-05
 0.015576	-1.633606E-05
 0.020569	-1.537170E-05
 0.025562	-1.416626E-05
 0.030557	-1.275635E-05
 0.035547	-1.119385E-05
 0.040543	-9.356689E-06
 0.045538	-7.196045E-06
 0.050568	-4.714966E-06
 0.055542	-1.880493E-06
 0.060547	1.432495E-06
 0.065552	5.273438E-06
 0.070526	9.674072E-06
 0.075531	1.471863E-05
 0.080505	2.042236E-05
 0.085480	2.687988E-05
 0.090485	3.410950E-05
 0.095490	4.216919E-05
 0.100464	5.102539E-05
 0.105469	6.076050E-05
 0.110443	7.135010E-05
 0.115448	8.276367E-05
 0.120422	9.490967E-05
 0.125427	1.078186E-04
 0.130432	1.214294E-04
 0.135406	1.355286E-04
 0.140411	1.501465E-04
 0.145386	1.651611E-04
 0.150391	1.803894E-04
 0.155365	1.957703E-04
 0.160370	2.111511E-04
 0.165344	2.263184E-04
 0.170349	2.412720E-04
 0.175323	2.556458E-04
 0.180328	2.693787E-04
 0.185333	2.822571E-04
 0.190308	2.941589E-04
 0.195313	3.048096E-04
 0.200287	3.141785E-04
 0.205292	3.217468E-04
 0.210266	3.275146E-04
 0.215271	3.312988E-04
 0.220245	3.330688E-04
 0.225250	3.327332E-04
 0.230225	3.302612E-04
 0.235229	3.258972E-04
 0.240204	3.197937E-04
 0.245209	3.122559E-04
 0.250214	3.036804E-04
 0.255188	2.944336E-04
 0.260193	2.848206E-04
 0.265167	2.751770E-04
 0.270172	2.657471E-04
 0.275146	2.566833E-04
 0.280151	2.480469E-04
 0.285126	2.398987E-04
 0.290131	2.322998E-04
 0.295135	2.251892E-04
 0.300110	2.185974E-04
 0.305084	2.124634E-04
 0.310089	2.067261E-04
 0.315094	2.014160E-04
 0.320068	1.964111E-04
 0.325073	1.917725E-04
 0.330048	1.873779E-04
 0.335052	1.832275E-04
 0.340027	1.793823E-04
 0.345032	1.757202E-04
 0.350006	1.722412E-04
 0.355011	1.689758E-04
 0.359985	1.658630E-04
 0.364990	1.629028E-04
 0.369965	1.600647E-04
 0.374969	1.573181E-04
 0.379974	1.547546E-04
 0.384949	1.522827E-04
 0.389954	1.499023E-04
 0.394928	1.476135E-04
 0.399902	1.454163E-04
 0.404907	1.432800E-04
 0.409912	1.411743E-04
 0.414886	1.392212E-04
 0.419861	1.372681E-04
 0.424866	1.353760E-04
 0.429871	1.335754E-04
 0.434845	1.317444E-04
 0.439850	1.300049E-04
 0.444855	1.282959E-04
 0.449829	1.265869E-04
 0.454803	1.249390E-04
 0.459808	1.233215E-04
 0.464813	1.217346E-04
 0.469788	1.201782E-04
 0.474792	1.186829E-04
 0.479767	1.171570E-04
 0.484741	1.156616E-04
 0.489746	1.141968E-04
 0.494720	1.127625E-04
 0.499878	1.113586E-04
 0.499878	1.005554E-04
 0.494629	9.118652E-05
 0.489624	8.642578E-05
 0.484619	8.294678E-05
 0.479614	8.007813E-05
 0.474609	7.757568E-05
 0.469604	7.534790E-05
 0.464600	7.327271E-05
 0.459595	7.138062E-05
 0.454590	6.958008E-05
 0.449585	6.787109E-05
 0.444580	6.622314E-05
 0.439575	6.460571E-05
 0.434570	6.301880E-05
 0.429565	6.149292E-05
 0.424561	5.999756E-05
 0.419556	5.853271E-05
 0.414551	5.709839E-05
 0.409546	5.566406E-05
 0.404541	5.426025E-05
 0.399536	5.282593E-05
 0.394531	5.142212E-05
 0.389557	4.998779E-05
 0.384521	4.866638E-05
 0.379547	4.723206E-05
 0.374542	4.580994E-05
 0.369507	4.436646E-05
 0.364532	4.292908E-05
 0.359528	4.146729E-05
 0.354492	3.901672E-05
 0.349518	3.829041E-05
 0.344513	3.681030E-05
 0.339508	3.525696E-05
 0.334503	3.367615E-05
 0.329498	3.206787E-05
 0.324493	3.041382E-05
 0.319489	2.870483E-05
 0.314484	2.697449E-05
 0.309479	2.516479E-05
 0.304474	2.331543E-05
 0.299469	2.134705E-05
 0.294464	1.929016E-05
 0.289490	1.714478E-05
 0.284454	1.484985E-05
 0.279480	1.243896E-05
 0.274475	9.805298E-06
 0.269470	6.997681E-06
 0.264465	4.010315E-06
 0.259460	7.168579E-07
 0.254456	-2.858582E-06
 0.249451	-6.756592E-06
 0.244446	-1.104126E-05
 0.239441	-1.574707E-05
 0.234436	-2.097168E-05
 0.229431	-2.664490E-05
 0.224457	-3.286438E-05
 0.219421	-3.969421E-05
 0.214447	-4.721069E-05
 0.209442	-5.538940E-05
 0.204437	-6.420898E-05
 0.199432	-7.373047E-05
 0.194427	-8.395386E-05
 0.189423	-9.481812E-05
 0.184418	-1.063843E-04
 0.179413	-1.184692E-04
 0.174408	-1.311035E-04
 0.169403	-1.441956E-04
 0.164429	-1.576843E-04
 0.159393	-1.714172E-04
 0.154419	-1.852417E-04
 0.149414	-1.990662E-04
 0.144409	-2.127686E-04
 0.139404	-2.261047E-04
 0.134399	-2.390137E-04
 0.129395	-2.511597E-04
 0.124390	-2.625732E-04
 0.119385	-2.728271E-04
 0.114410	-2.818909E-04
 0.109406	-2.894287E-04
 0.104401	-2.953491E-04
 0.099396	-2.994385E-04
 0.094391	-3.014832E-04
 0.089386	-3.013000E-04
 0.084412	-2.991028E-04
 0.079407	-2.946472E-04
 0.074402	-2.881470E-04
 0.069397	-2.800293E-04
 0.064392	-2.708435E-04
 0.059387	-2.610168E-04
 0.054382	-2.509766E-04
 0.049377	-2.410583E-04
 0.044370	-2.315063E-04
 0.039362	-2.224731E-04
 0.034357	-2.139587E-04
 0.029355	-2.060852E-04
 0.024347	-1.987610E-04
 0.019345	-1.920166E-04
 0.014346	-1.857910E-04
 0.009338	-1.800232E-04
 0.004337	-1.747437E-04
 -0.000665	-1.697998E-04
 -0.005670	-1.651306E-04
 -0.010675	-1.610107E-04
 -0.015674	-1.570435E-04
 -0.020682	-1.533813E-04
 -0.025681	-1.498718E-04
 -0.030682	-1.466675E-04
 -0.035687	-1.436768E-04
 -0.040689	-1.408691E-04
 -0.045691	-1.381836E-04
 -0.050629	-1.357117E-04
 -0.055634	-1.333923E-04
 -0.060638	-1.311646E-04
 -0.065643	-1.290894E-04
 -0.070648	-1.271057E-04
 -0.075653	-1.252747E-04
 -0.080658	-1.235046E-04
 -0.085663	-1.218262E-04
 -0.090668	-1.202393E-04
 -0.095642	-1.187134E-04
 -0.100647	-1.172791E-04
 -0.105652	-1.159363E-04
 -0.110657	-1.145935E-04
 -0.115662	-1.134033E-04
 -0.120667	-1.121826E-04
 -0.125671	-1.110535E-04
 -0.130676	-1.099854E-04
 -0.135651	-1.089172E-04
 -0.140656	-1.079407E-04
 -0.145660	-1.069946E-04
 -0.150665	-1.060181E-04
 -0.155670	-1.051941E-04
 -0.160675	-1.043396E-04
 -0.165649	-1.035156E-04
 -0.170685	-1.027527E-04
 -0.175659	-1.019897E-04
 -0.180664	-1.012573E-04
 -0.185669	-1.005859E-04
 -0.190674	-9.991455E-05
 -0.195679	-9.927368E-05
 -0.200684	-9.869385E-05
 -0.205688	-9.808350E-05
 -0.210693	-9.750366E-05
 -0.215668	-9.695435E-05
 -0.220673	-9.649658E-05
 -0.225677	-9.597778E-05
 -0.230682	-9.548950E-05
 -0.235687	-9.503174E-05
 -0.240692	-9.457397E-05
 -0.245697	-9.414673E-05
 -0.250702	-9.375000E-05
 -0.255707	-9.332275E-05
 -0.260681	-9.298706E-05
 -0.265686	-9.262085E-05
 -0.270691	-9.228516E-05
 -0.275696	-9.197998E-05
 -0.280701	-9.167480E-05
 -0.285706	-9.136963E-05
 -0.290680	-9.112549E-05
 -0.295685	-9.085083E-05
 -0.297241	-8.044434E-05
 -0.292236	-4.160767E-05
 -0.287262	-3.662109E-05
 -0.282257	-3.515625E-05
 -0.277252	-3.436890E-05
 -0.272278	-3.369141E-05
 -0.267273	-3.312683E-05
 -0.262268	-3.145752E-05
 -0.257263	-3.219910E-05
 -0.252289	-3.184814E-05
 -0.247284	-3.149414E-05
 -0.242279	-3.115540E-05
 -0.237305	-3.082581E-05
 -0.232300	-3.050232E-05
 -0.227295	-3.019409E-05
 -0.222321	-2.992554E-05
 -0.217316	-2.962036E-05
 -0.212311	-2.939148E-05
 -0.207336	-2.914734E-05
 -0.202362	-2.889404E-05
 -0.197357	-2.863770E-05
 -0.192352	-2.842712E-05
 -0.187347	-2.821045E-05
 -0.182373	-2.804565E-05
 -0.177368	-2.790527E-05
 -0.172363	-2.761536E-05
 -0.167389	-2.746582E-05
 -0.162384	-2.725830E-05
 -0.157410	-2.707214E-05
 -0.152405	-2.691040E-05
 -0.147430	-2.672119E-05
 -0.142426	-2.654114E-05
 -0.137451	-2.640686E-05
 -0.132446	-2.624817E-05
 -0.127441	-2.613220E-05
 -0.122467	-2.597351E-05
 -0.117462	-2.581177E-05
 -0.112457	-2.564392E-05
 -0.107483	-2.547913E-05
 -0.102509	-2.535400E-05
 -0.097504	-2.520447E-05
 -0.092529	-2.507935E-05
 -0.087524	-2.496033E-05
 -0.082520	-2.483826E-05
 -0.077545	-2.464294E-05
 -0.072540	-2.449646E-05
 -0.067566	-2.433167E-05
 -0.062561	-2.415466E-05
 -0.057556	-2.393494E-05
 -0.052582	-2.374878E-05
 -0.047659	-2.351074E-05
 -0.042664	-2.327576E-05
 -0.037674	-2.304688E-05
 -0.032681	-2.272339E-05
 -0.027679	-2.240295E-05
 -0.022693	-2.203064E-05
 -0.017700	-2.163391E-05
 -0.012704	-2.115479E-05
 -0.007715	-2.065735E-05
 -0.002713	-2.004089E-05

 Potential	  Scan 5   
 0.002271	-1.947021E-05
 0.007281	-1.862793E-05
 0.012256	-1.791992E-05
 0.017252	-1.694946E-05
 0.022241	-1.584473E-05
 0.027240	-1.456909E-05
 0.032230	-1.312866E-05
 0.037222	-1.144714E-05
 0.042215	-9.536743E-06
 0.047208	-7.254028E-06
 0.052246	-4.623413E-06
 0.057220	-1.609802E-06
 0.062225	1.866455E-06
 0.067200	5.914307E-06
 0.072205	1.053467E-05
 0.077209	1.580505E-05
 0.082184	2.179871E-05
 0.087189	2.852478E-05
 0.092163	3.606567E-05
 0.097168	4.443054E-05
 0.102142	5.361938E-05
 0.107147	6.365967E-05
 0.112152	7.455444E-05
 0.117126	8.621216E-05
 0.122131	9.869385E-05
 0.127106	1.118469E-04
 0.132111	1.256104E-04
 0.137085	1.399536E-04
 0.142090	1.547241E-04
 0.147064	1.698303E-04
 0.152069	1.851196E-04
 0.157043	2.005005E-04
 0.162048	2.158203E-04
 0.167023	2.309570E-04
 0.172028	2.457275E-04
 0.177002	2.598572E-04
 0.182007	2.733154E-04
 0.187012	2.858887E-04
 0.191986	2.973022E-04
 0.196991	3.074341E-04
 0.201965	3.162231E-04
 0.206970	3.231506E-04
 0.211945	3.282166E-04
 0.216949	3.312683E-04
 0.221924	3.322754E-04
 0.226929	3.311157E-04
 0.231934	3.279724E-04
 0.236908	3.229065E-04
 0.241882	3.162231E-04
 0.246887	3.082886E-04
 0.251892	2.994080E-04
 0.256866	2.899780E-04
 0.261871	2.803345E-04
 0.266846	2.707214E-04
 0.271851	2.614136E-04
 0.276825	2.524719E-04
 0.281830	2.440491E-04
 0.286804	2.361145E-04
 0.291809	2.286987E-04
 0.296814	2.217712E-04
 0.301788	2.153625E-04
 0.306763	2.093506E-04
 0.311768	2.037659E-04
 0.316772	1.985779E-04
 0.321747	1.936951E-04
 0.326752	1.891174E-04
 0.331726	1.848450E-04
 0.336731	1.808167E-04
 0.341705	1.770020E-04
 0.346710	1.734009E-04
 0.351685	1.700439E-04
 0.356689	1.667786E-04
 0.361664	1.637573E-04
 0.366669	1.608276E-04
 0.371674	1.580200E-04
 0.376648	1.553650E-04
 0.381653	1.527710E-04
 0.386627	1.503601E-04
 0.391602	1.480103E-04
 0.396606	1.457520E-04
 0.401611	1.435852E-04
 0.406586	1.414490E-04
 0.411591	1.394348E-04
 0.416565	1.374512E-04
 0.421570	1.355286E-04
 0.426544	1.336670E-04
 0.431549	1.318665E-04
 0.436523	1.300659E-04
 0.441528	1.283264E-04
 0.446503	1.266174E-04
 0.451508	1.249695E-04
 0.456482	1.233215E-04
 0.461487	1.217041E-04
 0.466492	1.201477E-04
 0.471466	1.185913E-04
 0.476471	1.170959E-04
 0.481445	1.155701E-04
 0.486420	1.141052E-04
 0.491425	1.126404E-04
 0.496429	1.112366E-04
 0.497650	1.036682E-04
 0.492645	9.149170E-05
 0.487640	8.642578E-05
 0.482635	8.279419E-05
 0.477631	7.983398E-05
 0.472626	7.727051E-05
 0.467621	7.498169E-05
 0.462616	7.290649E-05
 0.457611	7.095337E-05
 0.452606	6.915283E-05
 0.447601	6.738281E-05
 0.442596	6.573486E-05
 0.437592	6.408691E-05
 0.432587	6.250000E-05
 0.427582	6.094360E-05
 0.422577	5.944824E-05
 0.417572	5.798340E-05
 0.412598	5.651855E-05
 0.407562	5.508423E-05
 0.402557	5.364990E-05
 0.397583	5.221558E-05
 0.392578	5.081177E-05
 0.387573	4.944763E-05
 0.382568	4.801331E-05
 0.377563	4.656067E-05
 0.372559	4.512329E-05
 0.367554	4.368896E-05
 0.362549	4.222107E-05
 0.357544	3.980713E-05
 0.352539	3.905945E-05
 0.347534	3.757019E-05
 0.342560	3.605652E-05
 0.337524	3.447266E-05
 0.332550	3.287354E-05
 0.327545	3.125000E-05
 0.322510	2.956543E-05
 0.317535	2.785034E-05
 0.312531	2.608337E-05
 0.307526	2.426147E-05
 0.302521	2.234497E-05
 0.297516	2.036743E-05
 0.292511	1.828003E-05
 0.287506	1.605835E-05
 0.282501	1.369629E-05
 0.277496	1.120911E-05
 0.272491	8.508301E-06
 0.267487	5.651855E-06
 0.262482	2.510986E-06
 0.257507	-8.456421E-07
 0.252502	-4.562378E-06
 0.247498	-8.630371E-06
 0.242493	-1.305237E-05
 0.237488	-1.797791E-05
 0.232483	-2.332153E-05
 0.227478	-2.921448E-05
 0.222473	-3.567200E-05
 0.217468	-4.275818E-05
 0.212463	-5.050659E-05
 0.207458	-5.892944E-05
 0.202454	-6.796265E-05
 0.197479	-7.775879E-05
 0.192474	-8.828735E-05
 0.187469	-9.939575E-05
 0.182434	-1.111755E-04
 0.177460	-1.234741E-04
 0.172455	-1.362610E-04
 0.167450	-1.495361E-04
 0.162476	-1.630554E-04
 0.157440	-1.768494E-04
 0.152435	-1.907043E-04
 0.147461	-2.045288E-04
 0.142456	-2.180786E-04
 0.137451	-2.312927E-04
 0.132446	-2.439270E-04
 0.127441	-2.557983E-04
 0.122437	-2.668457E-04
 0.117432	-2.766724E-04
 0.112427	-2.852173E-04
 0.107452	-2.921753E-04
 0.102417	-2.974548E-04
 0.097443	-3.007507E-04
 0.092438	-3.019409E-04
 0.087433	-3.011780E-04
 0.082458	-2.980652E-04
 0.077454	-2.927856E-04
 0.072449	-2.856750E-04
 0.067444	-2.771301E-04
 0.062439	-2.676086E-04
 0.057434	-2.576599E-04
 0.052429	-2.476807E-04
 0.047406	-2.378540E-04
 0.042407	-2.284851E-04
 0.037408	-2.196350E-04
 0.032404	-2.113342E-04
 0.027402	-2.037048E-04
 0.022397	-1.965942E-04
 0.017392	-1.900330E-04
 0.012390	-1.840210E-04
 0.007407	-1.783752E-04
 0.002393	-1.732788E-04
 -0.002609	-1.684570E-04
 -0.007614	-1.640625E-04
 -0.012616	-1.598816E-04
 -0.017618	-1.560364E-04
 -0.022623	-1.524658E-04
 -0.027625	-1.491089E-04
 -0.032629	-1.459656E-04
 -0.037634	-1.430359E-04
 -0.042630	-1.402588E-04
 -0.047635	-1.376953E-04
 -0.052582	-1.352539E-04
 -0.057587	-1.329651E-04
 -0.062592	-1.307983E-04
 -0.067596	-1.287537E-04
 -0.072571	-1.268311E-04
 -0.077606	-1.250305E-04
 -0.082581	-1.232910E-04
 -0.087585	-1.216431E-04
 -0.092590	-1.201172E-04
 -0.097595	-1.186218E-04
 -0.102600	-1.172180E-04
 -0.107605	-1.158447E-04
 -0.112579	-1.145935E-04
 -0.117584	-1.133728E-04
 -0.122589	-1.121826E-04
 -0.127594	-1.110535E-04
 -0.132599	-1.099854E-04
 -0.137604	-1.089783E-04
 -0.142609	-1.080017E-04
 -0.147614	-1.070557E-04
 -0.152588	-1.061707E-04
 -0.157593	-1.052856E-04
 -0.162598	-1.044617E-04
 -0.167603	-1.036377E-04
 -0.172607	-1.029358E-04
 -0.177612	-1.021423E-04
 -0.182587	-1.015015E-04
 -0.187592	-1.007690E-04
 -0.192627	-1.000977E-04
 -0.197601	-9.948730E-05
 -0.202606	-9.890747E-05
 -0.207611	-9.832764E-05
 -0.212616	-9.777832E-05
 -0.217621	-9.722900E-05
 -0.222595	-9.671021E-05
 -0.227600	-9.622192E-05
 -0.232605	-9.573364E-05
 -0.237610	-9.530640E-05
 -0.242615	-9.484863E-05
 -0.247620	-9.442139E-05
 -0.252625	-9.408569E-05
 -0.257629	-9.365845E-05
 -0.262634	-9.329224E-05
 -0.267609	-9.295654E-05
 -0.272614	-9.262085E-05
 -0.277618	-9.231567E-05
 -0.282623	-9.201050E-05
 -0.287628	-9.173584E-05
 -0.292603	-9.143066E-05
 -0.297607	-9.124756E-05
 -0.295776	-5.764771E-05
 -0.290771	-3.939514E-05
 -0.285797	-3.643799E-05
 -0.280792	-3.530273E-05
 -0.275787	-3.454895E-05
 -0.270813	-3.392639E-05
 -0.265808	-3.337402E-05
 -0.260803	-3.172913E-05
 -0.255829	-3.246765E-05
 -0.250824	-3.218689E-05
 -0.245819	-3.178406E-05
 -0.240814	-3.142090E-05
 -0.235840	-3.114929E-05
 -0.230835	-3.083496E-05
 -0.225861	-3.052673E-05
 -0.220856	-3.025513E-05
 -0.215851	-2.998047E-05
 -0.210876	-2.974548E-05
 -0.205872	-2.947693E-05
 -0.200867	-2.926941E-05
 -0.195892	-2.904968E-05
 -0.190887	-2.876892E-05
 -0.185883	-2.860718E-05
 -0.180908	-2.839661E-05
 -0.175903	-2.818604E-05
 -0.170929	-2.799377E-05
 -0.165924	-2.784119E-05
 -0.160919	-2.763367E-05
 -0.155945	-2.748413E-05
 -0.150940	-2.728882E-05
 -0.145966	-2.714233E-05
 -0.140961	-2.695618E-05
 -0.135956	-2.680969E-05
 -0.130981	-2.663879E-05
 -0.125977	-2.650452E-05
 -0.120972	-2.635803E-05
 -0.115997	-2.620544E-05
 -0.110992	-2.606506E-05
 -0.106018	-2.591858E-05
 -0.101013	-2.575989E-05
 -0.096039	-2.560120E-05
 -0.091034	-2.546692E-05
 -0.086029	-2.531128E-05
 -0.081055	-2.517395E-05
 -0.076080	-2.504272E-05
 -0.071075	-2.489624E-05
 -0.066071	-2.471313E-05
 -0.061066	-2.453308E-05
 -0.056091	-2.431641E-05
 -0.051086	-2.411499E-05
 -0.046176	-2.387390E-05
 -0.041180	-2.362976E-05
 -0.036188	-2.335205E-05
 -0.031192	-2.307129E-05
 -0.026199	-2.271118E-05
 -0.021201	-2.234192E-05
 -0.016211	-2.189941E-05
 -0.011215	-2.144470E-05
 -0.006226	-2.090759E-05
 -0.001230	-2.040710E-05
