Date: 15-08-25
Time: 14:31:28 PM

Exp. Conditions:
Cyclic voltammetry
Start potential (V) = .0000
First vertex potential (V) = .5000
Second vertex potential (V) = -.3000
Step potential (V) = .00500
Scan rate (V/s) = .19994
Equilibration time (s) = 
Number of Data Points =  320 

 Potential	  Scan 1   
 0.002133	-7.894897E-06
 0.009653	-2.732239E-06
 0.014645	-2.039795E-06
 0.019638	-1.390381E-06
 0.024628	-6.777954E-07
 0.029620	7.171631E-08
 0.034613	9.854126E-07
 0.039603	2.098083E-06
 0.044592	3.338928E-06
 0.049591	4.769897E-06
 0.054596	6.427002E-06
 0.059570	8.395386E-06
 0.064575	1.071472E-05
 0.069580	1.340332E-05
 0.074554	1.652832E-05
 0.079529	2.012939E-05
 0.084534	2.431030E-05
 0.089539	2.902527E-05
 0.094513	3.439941E-05
 0.099487	4.032288E-05
 0.104492	4.704285E-05
 0.109467	5.447388E-05
 0.114471	6.259155E-05
 0.119446	7.144165E-05
 0.124451	8.093262E-05
 0.129425	9.103394E-05
 0.134430	1.016846E-04
 0.139404	1.127014E-04
 0.144409	1.241150E-04
 0.149384	1.358337E-04
 0.154388	1.475525E-04
 0.159363	1.593018E-04
 0.164368	1.708374E-04
 0.169342	1.820374E-04
 0.174316	1.926575E-04
 0.179321	2.026367E-04
 0.184296	2.117920E-04
 0.189301	2.197266E-04
 0.194305	2.265320E-04
 0.199280	2.319031E-04
 0.204254	2.357483E-04
 0.209259	2.379456E-04
 0.214233	2.385559E-04
 0.219238	2.374878E-04
 0.224213	2.348938E-04
 0.229218	2.309875E-04
 0.234192	2.259216E-04
 0.239197	2.200623E-04
 0.244171	2.136841E-04
 0.249146	2.070007E-04
 0.254150	2.002258E-04
 0.259125	1.935425E-04
 0.264130	1.870728E-04
 0.269104	1.809387E-04
 0.274109	1.751099E-04
 0.279083	1.696777E-04
 0.284088	1.645508E-04
 0.289063	1.597900E-04
 0.294067	1.553650E-04
 0.299042	1.512451E-04
 0.304016	1.473694E-04
 0.309021	1.437683E-04
 0.313995	1.404114E-04
 0.319000	1.372375E-04
 0.324005	1.342773E-04
 0.328979	1.314697E-04
 0.333954	1.288452E-04
 0.338959	1.263733E-04
 0.343933	1.240234E-04
 0.348938	1.217957E-04
 0.353912	1.196594E-04
 0.358887	1.176453E-04
 0.363892	1.157227E-04
 0.368866	1.138611E-04
 0.373871	1.120911E-04
 0.378845	1.103821E-04
 0.383850	1.087646E-04
 0.388824	1.071777E-04
 0.393829	1.056824E-04
 0.398804	1.041870E-04
 0.403778	1.027527E-04
 0.408783	1.013794E-04
 0.413757	1.000366E-04
 0.418762	9.872437E-05
 0.423737	9.744263E-05
 0.428741	9.619141E-05
 0.433716	9.494019E-05
 0.438721	9.375000E-05
 0.443695	9.255981E-05
 0.448700	9.140015E-05
 0.453674	9.027100E-05
 0.458679	8.914185E-05
 0.463654	8.804321E-05
 0.468628	8.694458E-05
 0.473633	8.587646E-05
 0.478607	8.480835E-05
 0.483612	8.377075E-05
 0.488586	8.273315E-05
 0.493561	8.175659E-05
 0.498566	8.074951E-05
 0.500183	7.556152E-05
 0.494781	6.860352E-05
 0.489777	6.567383E-05
 0.484772	6.353760E-05
 0.479736	6.173706E-05
 0.474731	6.018066E-05
 0.469727	5.880737E-05
 0.464722	5.749512E-05
 0.459717	5.627441E-05
 0.454712	5.514526E-05
 0.449707	5.401611E-05
 0.444672	5.297852E-05
 0.439667	5.194092E-05
 0.434662	5.093384E-05
 0.429657	4.995728E-05
 0.424622	4.900818E-05
 0.419617	4.806519E-05
 0.414612	4.712830E-05
 0.409607	4.619751E-05
 0.404602	4.527893E-05
 0.399597	4.435120E-05
 0.394592	4.345703E-05
 0.389587	4.255066E-05
 0.384583	4.163208E-05
 0.379578	4.072266E-05
 0.374542	3.982544E-05
 0.369537	3.890686E-05
 0.364532	3.797913E-05
 0.359528	3.707886E-05
 0.354523	3.612976E-05
 0.349518	3.518372E-05
 0.344513	3.423157E-05
 0.339508	3.325806E-05
 0.334503	3.226624E-05
 0.329468	3.124390E-05
 0.324463	3.020630E-05
 0.319458	2.914124E-05
 0.314453	2.803650E-05
 0.309448	2.689209E-05
 0.304443	2.569275E-05
 0.299408	2.444763E-05
 0.294403	2.311401E-05
 0.289398	2.168884E-05
 0.284393	2.015686E-05
 0.279388	1.852112E-05
 0.274384	1.674194E-05
 0.269379	1.481323E-05
 0.264374	1.266174E-05
 0.259369	1.034851E-05
 0.254364	7.733154E-06
 0.249329	4.849243E-06
 0.244324	1.630554E-06
 0.239319	-1.944885E-06
 0.234314	-5.883789E-06
 0.229309	-1.034546E-05
 0.224304	-1.528015E-05
 0.219299	-2.077332E-05
 0.214294	-2.678833E-05
 0.209290	-3.341370E-05
 0.204285	-4.063721E-05
 0.199280	-4.849243E-05
 0.194275	-5.694580E-05
 0.189240	-6.591797E-05
 0.184235	-7.543945E-05
 0.179230	-8.538818E-05
 0.174225	-9.573364E-05
 0.169220	-1.063843E-04
 0.164215	-1.171570E-04
 0.159210	-1.279602E-04
 0.154205	-1.387024E-04
 0.149200	-1.492310E-04
 0.144196	-1.592712E-04
 0.139191	-1.687317E-04
 0.134186	-1.773682E-04
 0.129181	-1.851196E-04
 0.124146	-1.916199E-04
 0.119141	-1.969299E-04
 0.114136	-2.006836E-04
 0.109131	-2.029114E-04
 0.104126	-2.034302E-04
 0.099121	-2.022705E-04
 0.094116	-1.994629E-04
 0.089111	-1.951294E-04
 0.084106	-1.896667E-04
 0.079102	-1.833801E-04
 0.074097	-1.766968E-04
 0.069092	-1.697693E-04
 0.064087	-1.629028E-04
 0.059082	-1.562805E-04
 0.054047	-1.499023E-04
 0.049039	-1.438599E-04
 0.044034	-1.383057E-04
 0.039023	-1.330566E-04
 0.034018	-1.282043E-04
 0.029007	-1.237488E-04
 0.023996	-1.195984E-04
 0.018988	-1.157532E-04
 0.013977	-1.121826E-04
 0.008972	-1.088867E-04
 0.003961	-1.058960E-04
 -0.001047	-1.029663E-04
 -0.006052	-1.002808E-04
 -0.011063	-9.777832E-05
 -0.016071	-9.542847E-05
 -0.021078	-9.326172E-05
 -0.026089	-9.124756E-05
 -0.031097	-8.929443E-05
 -0.036105	-8.749390E-05
 -0.041113	-8.578491E-05
 -0.046121	-8.419800E-05
 -0.051086	-8.267212E-05
 -0.056091	-8.123779E-05
 -0.061096	-7.989502E-05
 -0.066101	-7.864380E-05
 -0.071106	-7.739258E-05
 -0.076111	-7.626343E-05
 -0.081116	-7.516479E-05
 -0.086121	-7.409668E-05
 -0.091125	-7.312012E-05
 -0.096130	-7.217407E-05
 -0.101166	-7.128906E-05
 -0.106171	-7.043457E-05
 -0.111145	-6.958008E-05
 -0.116180	-6.878662E-05
 -0.121185	-6.802368E-05
 -0.126190	-6.729126E-05
 -0.131195	-6.661987E-05
 -0.136200	-6.591797E-05
 -0.141205	-6.527710E-05
 -0.146210	-6.466675E-05
 -0.151215	-6.408691E-05
 -0.156219	-6.347656E-05
 -0.161224	-6.295776E-05
 -0.166229	-6.243896E-05
 -0.171234	-6.192017E-05
 -0.176239	-6.143188E-05
 -0.181244	-6.094360E-05
 -0.186249	-6.045532E-05
 -0.191284	-6.002808E-05
 -0.196289	-5.960083E-05
 -0.201294	-5.920410E-05
 -0.206299	-5.880737E-05
 -0.211304	-5.844116E-05
 -0.216309	-5.807495E-05
 -0.221313	-5.770874E-05
 -0.226318	-5.734253E-05
 -0.231323	-5.706787E-05
 -0.236328	-5.673218E-05
 -0.241333	-5.642700E-05
 -0.246338	-5.615234E-05
 -0.251343	-5.587769E-05
 -0.256348	-5.560303E-05
 -0.261353	-5.535889E-05
 -0.266357	-5.508423E-05
 -0.271362	-5.487061E-05
 -0.276367	-5.465698E-05
 -0.281372	-5.441284E-05
 -0.286407	-5.419922E-05
 -0.291382	-5.401611E-05
 -0.296387	-5.386353E-05
 -0.296021	-3.463135E-05
 -0.291016	-2.625427E-05
 -0.286041	-2.540588E-05
 -0.281036	-2.489014E-05
 -0.276062	-2.447510E-05
 -0.271057	-2.408752E-05
 -0.266052	-2.376404E-05
 -0.261078	-2.348022E-05
 -0.256104	-2.319031E-05
 -0.251099	-2.293091E-05
 -0.246094	-2.268066E-05
 -0.241119	-2.243958E-05
 -0.236115	-2.220459E-05
 -0.231110	-2.201233E-05
 -0.226135	-2.180786E-05
 -0.221130	-2.160339E-05
 -0.216156	-2.141418E-05
 -0.211151	-2.122192E-05
 -0.206177	-2.103882E-05
 -0.201172	-2.087708E-05
 -0.196198	-2.070923E-05
 -0.191193	-2.055359E-05
 -0.186188	-2.040405E-05
 -0.181213	-2.025452E-05
 -0.176239	-2.010803E-05
 -0.171234	-1.996155E-05
 -0.166229	-1.983643E-05
 -0.161255	-1.969604E-05
 -0.156250	-1.956787E-05
 -0.151276	-1.944275E-05
 -0.146301	-1.930542E-05
 -0.141296	-1.919250E-05
 -0.136292	-1.907959E-05
 -0.131317	-1.894226E-05
 -0.126312	-1.884460E-05
 -0.121338	-1.874695E-05
 -0.116333	-1.860962E-05
 -0.111359	-1.851196E-05
 -0.106354	-1.840820E-05
 -0.101379	-1.829529E-05
 -0.096375	-1.818848E-05
 -0.091400	-1.808777E-05
 -0.086395	-1.798096E-05
 -0.081421	-1.788025E-05
 -0.076447	-1.773376E-05
 -0.071442	-1.765137E-05
 -0.066467	-1.755371E-05
 -0.061462	-1.739807E-05
 -0.056458	-1.726685E-05
 -0.051483	-1.713867E-05
 -0.046545	-1.697083E-05
 -0.041556	-1.683655E-05
 -0.036563	-1.665039E-05
 -0.031573	-1.645813E-05
 -0.026584	-1.624451E-05
 -0.021591	-1.600952E-05
 -0.016602	-1.575928E-05
 -0.011612	-1.548462E-05
 -0.006619	-1.517029E-05
 -0.001630	-1.485596E-05

 Potential	  Scan 2   
 0.003366	-1.438904E-05
 0.008359	-1.387329E-05
 0.013342	-1.339111E-05
 0.018335	-1.277466E-05
 0.023325	-1.208191E-05
 0.028311	-1.127930E-05
 0.033304	-1.032715E-05
 0.038293	-9.246826E-06
 0.043283	-7.958984E-06
 0.048273	-6.463623E-06
 0.053284	-4.742432E-06
 0.058258	-2.736511E-06
 0.063263	-3.872681E-07
 0.068268	2.329102E-06
 0.073242	5.490112E-06
 0.078247	9.143066E-06
 0.083221	1.333008E-05
 0.088196	1.811523E-05
 0.093201	2.345581E-05
 0.098175	2.949524E-05
 0.103180	3.627625E-05
 0.108154	4.371338E-05
 0.113159	5.181885E-05
 0.118134	6.066895E-05
 0.123138	7.015991E-05
 0.128113	8.026123E-05
 0.133118	9.091187E-05
 0.138092	1.019897E-04
 0.143066	1.134338E-04
 0.148071	1.251221E-04
 0.153076	1.369019E-04
 0.158051	1.486816E-04
 0.163055	1.602783E-04
 0.168030	1.715393E-04
 0.173004	1.823120E-04
 0.178009	1.923523E-04
 0.182983	2.015686E-04
 0.187988	2.097473E-04
 0.192963	2.166748E-04
 0.197968	2.221680E-04
 0.202942	2.262268E-04
 0.207947	2.286377E-04
 0.212921	2.294006E-04
 0.217926	2.285156E-04
 0.222900	2.261353E-04
 0.227875	2.223816E-04
 0.232880	2.174988E-04
 0.237854	2.117615E-04
 0.242828	2.054138E-04
 0.247833	1.987915E-04
 0.252838	1.920776E-04
 0.257813	1.853943E-04
 0.262817	1.789551E-04
 0.267792	1.727600E-04
 0.272766	1.669312E-04
 0.277771	1.614380E-04
 0.282745	1.563110E-04
 0.287750	1.515198E-04
 0.292725	1.470642E-04
 0.297699	1.429138E-04
 0.302704	1.390076E-04
 0.307678	1.353760E-04
 0.312683	1.319885E-04
 0.317688	1.288147E-04
 0.322662	1.258240E-04
 0.327637	1.230469E-04
 0.332642	1.203918E-04
 0.337616	1.179199E-04
 0.342621	1.155396E-04
 0.347595	1.133118E-04
 0.352570	1.111755E-04
 0.357574	1.091614E-04
 0.362549	1.072083E-04
 0.367554	1.053772E-04
 0.372528	1.036072E-04
 0.377533	1.019287E-04
 0.382507	1.003113E-04
 0.387512	9.875488E-05
 0.392487	9.725952E-05
 0.397491	9.579468E-05
 0.402466	9.439087E-05
 0.407440	9.304810E-05
 0.412445	9.173584E-05
 0.417419	9.045410E-05
 0.422424	8.923340E-05
 0.427399	8.801270E-05
 0.432373	8.682251E-05
 0.437378	8.566284E-05
 0.442383	8.456421E-05
 0.447357	8.346558E-05
 0.452362	8.236694E-05
 0.457336	8.132935E-05
 0.462311	8.026123E-05
 0.467316	7.925415E-05
 0.472290	7.824707E-05
 0.477264	7.730103E-05
 0.482269	7.632446E-05
 0.487244	7.537842E-05
 0.492249	7.446289E-05
 0.497223	7.354736E-05
 0.498474	6.848145E-05
 0.493439	6.164551E-05
 0.488434	5.880737E-05
 0.483429	5.673218E-05
 0.478424	5.505371E-05
 0.473419	5.355835E-05
 0.468384	5.224609E-05
 0.463379	5.102539E-05
 0.458374	4.986572E-05
 0.453369	4.880371E-05
 0.448364	4.773865E-05
 0.443359	4.672852E-05
 0.438324	4.574585E-05
 0.433319	4.479980E-05
 0.428314	4.385681E-05
 0.423309	4.294739E-05
 0.418304	4.203796E-05
 0.413300	4.114380E-05
 0.408264	4.026489E-05
 0.403259	3.938904E-05
 0.398254	3.851624E-05
 0.393250	3.764648E-05
 0.388245	3.677979E-05
 0.383240	3.591309E-05
 0.378235	3.504333E-05
 0.373199	3.417358E-05
 0.368195	3.329468E-05
 0.363190	3.241272E-05
 0.358185	3.152466E-05
 0.353180	3.061829E-05
 0.348175	2.969971E-05
 0.343170	2.877808E-05
 0.338165	2.783508E-05
 0.333160	2.687073E-05
 0.328156	2.588501E-05
 0.323151	2.489929E-05
 0.318146	2.384033E-05
 0.313110	2.276306E-05
 0.308105	2.164917E-05
 0.303101	2.044067E-05
 0.298096	1.920471E-05
 0.293091	1.790466E-05
 0.288086	1.648560E-05
 0.283051	1.498108E-05
 0.278046	1.336060E-05
 0.273041	1.159058E-05
 0.268036	9.631348E-06
 0.263031	7.519531E-06
 0.258026	5.169678E-06
 0.253021	2.559204E-06
 0.248016	-3.179932E-07
 0.242981	-3.568726E-06
 0.238007	-7.159424E-06
 0.232971	-1.120605E-05
 0.227966	-1.569214E-05
 0.222961	-2.066345E-05
 0.217957	-2.619019E-05
 0.212952	-3.228760E-05
 0.207947	-3.898010E-05
 0.202942	-4.627686E-05
 0.197937	-5.419922E-05
 0.192932	-6.268311E-05
 0.187927	-7.174683E-05
 0.182892	-8.129883E-05
 0.177887	-9.130859E-05
 0.172882	-1.016541E-04
 0.167877	-1.123047E-04
 0.162872	-1.231079E-04
 0.157867	-1.338501E-04
 0.152863	-1.445007E-04
 0.147858	-1.549072E-04
 0.142853	-1.648560E-04
 0.137848	-1.741638E-04
 0.132843	-1.826782E-04
 0.127838	-1.901245E-04
 0.122833	-1.964722E-04
 0.117798	-2.014465E-04
 0.112793	-2.049255E-04
 0.107788	-2.068481E-04
 0.102783	-2.070923E-04
 0.097778	-2.055969E-04
 0.092773	-2.024841E-04
 0.087769	-1.979370E-04
 0.082764	-1.922607E-04
 0.077759	-1.859436E-04
 0.072754	-1.791687E-04
 0.067749	-1.722717E-04
 0.062744	-1.654663E-04
 0.057739	-1.588135E-04
 0.052704	-1.525574E-04
 0.047699	-1.465759E-04
 0.042688	-1.410522E-04
 0.037683	-1.358948E-04
 0.032675	-1.311035E-04
 0.027664	-1.266479E-04
 0.022659	-1.225891E-04
 0.017648	-1.187744E-04
 0.012634	-1.152649E-04
 0.007648	-1.119690E-04
 0.002625	-1.089172E-04
 -0.002383	-1.061096E-04
 -0.007394	-1.034851E-04
 -0.012402	-1.009521E-04
 -0.017410	-9.866333E-05
 -0.022418	-9.649658E-05
 -0.027426	-9.445190E-05
 -0.032437	-9.252930E-05
 -0.037445	-9.072876E-05
 -0.042450	-8.901978E-05
 -0.047461	-8.743286E-05
 -0.052429	-8.590698E-05
 -0.057404	-8.447266E-05
 -0.062439	-8.312988E-05
 -0.067444	-8.181763E-05
 -0.072449	-8.059692E-05
 -0.077454	-7.943726E-05
 -0.082458	-7.836914E-05
 -0.087463	-7.730103E-05
 -0.092468	-7.629395E-05
 -0.097473	-7.531738E-05
 -0.102478	-7.440186E-05
 -0.107483	-7.351685E-05
 -0.112488	-7.272339E-05
 -0.117493	-7.189941E-05
 -0.122498	-7.113647E-05
 -0.127502	-7.037354E-05
 -0.132507	-6.964111E-05
 -0.137512	-6.896973E-05
 -0.142517	-6.832886E-05
 -0.147522	-6.768799E-05
 -0.152527	-6.707764E-05
 -0.157532	-6.652832E-05
 -0.162537	-6.594849E-05
 -0.167542	-6.539917E-05
 -0.172546	-6.488037E-05
 -0.177551	-6.436157E-05
 -0.182556	-6.387329E-05
 -0.187561	-6.341553E-05
 -0.192596	-6.295776E-05
 -0.197601	-6.256104E-05
 -0.202606	-6.210327E-05
 -0.207611	-6.173706E-05
 -0.212616	-6.134033E-05
 -0.217621	-6.094360E-05
 -0.222626	-6.057739E-05
 -0.227631	-6.027222E-05
 -0.232635	-5.993652E-05
 -0.237640	-5.957031E-05
 -0.242645	-5.926514E-05
 -0.247650	-5.899048E-05
 -0.252655	-5.868530E-05
 -0.257660	-5.841064E-05
 -0.262665	-5.813599E-05
 -0.267670	-5.789185E-05
 -0.272675	-5.764771E-05
 -0.277679	-5.740356E-05
 -0.282684	-5.718994E-05
 -0.287689	-5.700684E-05
 -0.292694	-5.679321E-05
 -0.297699	-5.661011E-05
 -0.294586	-3.193359E-05
 -0.289612	-2.876282E-05
 -0.284607	-2.804260E-05
 -0.279633	-2.754211E-05
 -0.274628	-2.711182E-05
 -0.269623	-2.676392E-05
 -0.264648	-2.640076E-05
 -0.259644	-2.610168E-05
 -0.254669	-2.581177E-05
 -0.249664	-2.554016E-05
 -0.244659	-2.530212E-05
 -0.239685	-2.504578E-05
 -0.234680	-2.484741E-05
 -0.229706	-2.462769E-05
 -0.224731	-2.438965E-05
 -0.219727	-2.419434E-05
 -0.214722	-2.398682E-05
 -0.209747	-2.380676E-05
 -0.204742	-2.362366E-05
 -0.199768	-2.344360E-05
 -0.194763	-2.327576E-05
 -0.189789	-2.309875E-05
 -0.184784	-2.294617E-05
 -0.179779	-2.278137E-05
 -0.174805	-2.260742E-05
 -0.169830	-2.247314E-05
 -0.164825	-2.231750E-05
 -0.159821	-2.216492E-05
 -0.154846	-2.203979E-05
 -0.149841	-2.190247E-05
 -0.144867	-2.176819E-05
 -0.139862	-2.164307E-05
 -0.134888	-2.150574E-05
 -0.129913	-2.138977E-05
 -0.124908	-2.125244E-05
 -0.119904	-2.113342E-05
 -0.114929	-2.100525E-05
 -0.109924	-2.088013E-05
 -0.104950	-2.078552E-05
 -0.099945	-2.066345E-05
 -0.094971	-2.055054E-05
 -0.089966	-2.042542E-05
 -0.084991	-2.030640E-05
 -0.079987	-2.018433E-05
 -0.075012	-2.007751E-05
 -0.070007	-1.993713E-05
 -0.065033	-1.980896E-05
 -0.060028	-1.967163E-05
 -0.055054	-1.953125E-05
 -0.050049	-1.938782E-05
 -0.045126	-1.920776E-05
 -0.040131	-1.901550E-05
 -0.035144	-1.885681E-05
 -0.030151	-1.865540E-05
 -0.025162	-1.842041E-05
 -0.020169	-1.818848E-05
 -0.015179	-1.788330E-05
 -0.010187	-1.758728E-05
 -0.005188	-1.725464E-05
 -0.000204	-1.685791E-05

 Potential	  Scan 3   
 0.004785	-1.641846E-05
 0.009778	-1.599121E-05
 0.014767	-1.536865E-05
 0.019760	-1.469421E-05
 0.024753	-1.394958E-05
 0.029745	-1.307983E-05
 0.034738	-1.210327E-05
 0.039728	-1.094360E-05
 0.044717	-9.567261E-06
 0.049713	-7.998657E-06
 0.054718	-6.179810E-06
 0.059692	-4.056396E-06
 0.064697	-1.555786E-06
 0.069702	1.289978E-06
 0.074677	4.647827E-06
 0.079651	8.480835E-06
 0.084656	1.286926E-05
 0.089630	1.785583E-05
 0.094635	2.345581E-05
 0.099609	2.976685E-05
 0.104614	3.674622E-05
 0.109589	4.445801E-05
 0.114594	5.282593E-05
 0.119568	6.185913E-05
 0.124573	7.162476E-05
 0.129547	8.187866E-05
 0.134552	9.268188E-05
 0.139526	1.039429E-04
 0.144531	1.154785E-04
 0.149506	1.271973E-04
 0.154510	1.390076E-04
 0.159485	1.507568E-04
 0.164459	1.622620E-04
 0.169464	1.733398E-04
 0.174438	1.839294E-04
 0.179443	1.936646E-04
 0.184418	2.025146E-04
 0.189423	2.102356E-04
 0.194427	2.167358E-04
 0.199402	2.217407E-04
 0.204376	2.251892E-04
 0.209381	2.270508E-04
 0.214355	2.272339E-04
 0.219360	2.257690E-04
 0.224335	2.229004E-04
 0.229309	2.187500E-04
 0.234314	2.135315E-04
 0.239319	2.075806E-04
 0.244293	2.011108E-04
 0.249298	1.944275E-04
 0.254272	1.877136E-04
 0.259247	1.811218E-04
 0.264252	1.747437E-04
 0.269226	1.687012E-04
 0.274231	1.629944E-04
 0.279205	1.576233E-04
 0.284210	1.526489E-04
 0.289185	1.479492E-04
 0.294189	1.435852E-04
 0.299164	1.395264E-04
 0.304169	1.357422E-04
 0.309143	1.322327E-04
 0.314148	1.289063E-04
 0.319122	1.257935E-04
 0.324127	1.228943E-04
 0.329102	1.201477E-04
 0.334106	1.175537E-04
 0.339081	1.151123E-04
 0.344055	1.127930E-04
 0.349060	1.105957E-04
 0.354034	1.084900E-04
 0.359039	1.065063E-04
 0.364014	1.046143E-04
 0.368988	1.028137E-04
 0.373993	1.010742E-04
 0.378998	9.942627E-05
 0.383972	9.780884E-05
 0.388947	9.628296E-05
 0.393951	9.478760E-05
 0.398926	9.335327E-05
 0.403931	9.197998E-05
 0.408905	9.063721E-05
 0.413879	8.935547E-05
 0.418884	8.810425E-05
 0.423859	8.688354E-05
 0.428864	8.569336E-05
 0.433838	8.450317E-05
 0.438843	8.337402E-05
 0.443817	8.227539E-05
 0.448822	8.117676E-05
 0.453796	8.010864E-05
 0.458801	7.907104E-05
 0.463776	7.806396E-05
 0.468781	7.705688E-05
 0.473755	7.608032E-05
 0.478729	7.510376E-05
 0.483734	7.415771E-05
 0.488708	7.324219E-05
 0.493683	7.232666E-05
 0.498688	7.144165E-05
 0.500183	6.640625E-05
 0.494904	5.972290E-05
 0.489899	5.691528E-05
 0.484894	5.490112E-05
 0.479858	5.325317E-05
 0.474854	5.178833E-05
 0.469849	5.050659E-05
 0.464844	4.932251E-05
 0.459839	4.819641E-05
 0.454834	4.711914E-05
 0.449829	4.609680E-05
 0.444824	4.509888E-05
 0.439789	4.413757E-05
 0.434784	4.320679E-05
 0.429779	4.228516E-05
 0.424774	4.138489E-05
 0.419769	4.049988E-05
 0.414734	3.962097E-05
 0.409729	3.875122E-05
 0.404724	3.788452E-05
 0.399719	3.703918E-05
 0.394714	3.618164E-05
 0.389709	3.533325E-05
 0.384705	3.447571E-05
 0.379700	3.363647E-05
 0.374664	3.276978E-05
 0.369659	3.190308E-05
 0.364655	3.103943E-05
 0.359650	3.016357E-05
 0.354645	2.927246E-05
 0.349640	2.837219E-05
 0.344635	2.747498E-05
 0.339630	2.653198E-05
 0.334625	2.558899E-05
 0.329590	2.464294E-05
 0.324585	2.365417E-05
 0.319580	2.261353E-05
 0.314575	2.156677E-05
 0.309570	2.046814E-05
 0.304565	1.932373E-05
 0.299530	1.812134E-05
 0.294525	1.683044E-05
 0.289520	1.547546E-05
 0.284515	1.400452E-05
 0.279510	1.243896E-05
 0.274506	1.071472E-05
 0.269501	8.847046E-06
 0.264496	6.796265E-06
 0.259491	4.522705E-06
 0.254486	2.010803E-06
 0.249481	-7.434082E-07
 0.244446	-3.862915E-06
 0.239441	-7.302856E-06
 0.234436	-1.119385E-05
 0.229431	-1.549072E-05
 0.224426	-2.029114E-05
 0.219421	-2.559204E-05
 0.214417	-3.151245E-05
 0.209412	-3.796692E-05
 0.204407	-4.504395E-05
 0.199402	-5.273438E-05
 0.194397	-6.103516E-05
 0.189362	-6.985474E-05
 0.184357	-7.922363E-05
 0.179352	-8.911133E-05
 0.174347	-9.927368E-05
 0.169342	-1.098633E-04
 0.164337	-1.205444E-04
 0.159332	-1.313171E-04
 0.154327	-1.420593E-04
 0.149292	-1.525574E-04
 0.144318	-1.626282E-04
 0.139313	-1.721802E-04
 0.134277	-1.809082E-04
 0.129272	-1.887207E-04
 0.124268	-1.954346E-04
 0.119263	-2.008667E-04
 0.114258	-2.048950E-04
 0.109253	-2.073364E-04
 0.104248	-2.081299E-04
 0.099243	-2.072449E-04
 0.094238	-2.046509E-04
 0.089233	-2.005310E-04
 0.084229	-1.952209E-04
 0.079224	-1.890869E-04
 0.074219	-1.824341E-04
 0.069214	-1.755676E-04
 0.064209	-1.687012E-04
 0.059174	-1.619568E-04
 0.054169	-1.555786E-04
 0.049164	-1.495667E-04
 0.044150	-1.438599E-04
 0.039139	-1.385803E-04
 0.034131	-1.336975E-04
 0.029120	-1.291199E-04
 0.024112	-1.249390E-04
 0.019107	-1.210632E-04
 0.014096	-1.174316E-04
 0.009088	-1.140747E-04
 0.004083	-1.110229E-04
 -0.000928	-1.080322E-04
 -0.005936	-1.053162E-04
 -0.010941	-1.028137E-04
 -0.015952	-1.004333E-04
 -0.020959	-9.820557E-05
 -0.025967	-9.613037E-05
 -0.030975	-9.417725E-05
 -0.035980	-9.234619E-05
 -0.040991	-9.060669E-05
 -0.046002	-8.895874E-05
 -0.050964	-8.743286E-05
 -0.055969	-8.596802E-05
 -0.060974	-8.453369E-05
 -0.065979	-8.325195E-05
 -0.070984	-8.203125E-05
 -0.075989	-8.081055E-05
 -0.080994	-7.971191E-05
 -0.085999	-7.864380E-05
 -0.091003	-7.760620E-05
 -0.096008	-7.662964E-05
 -0.101013	-7.568359E-05
 -0.106018	-7.482910E-05
 -0.111023	-7.394409E-05
 -0.116058	-7.312012E-05
 -0.121063	-7.235718E-05
 -0.126068	-7.159424E-05
 -0.131073	-7.089233E-05
 -0.136078	-7.015991E-05
 -0.141083	-6.951904E-05
 -0.146088	-6.884766E-05
 -0.151093	-6.823730E-05
 -0.156097	-6.765747E-05
 -0.161102	-6.707764E-05
 -0.166107	-6.655884E-05
 -0.171112	-6.597900E-05
 -0.176117	-6.549072E-05
 -0.181122	-6.500244E-05
 -0.186127	-6.451416E-05
 -0.191132	-6.405640E-05
 -0.196136	-6.362915E-05
 -0.201172	-6.317139E-05
 -0.206177	-6.280518E-05
 -0.211182	-6.237793E-05
 -0.216187	-6.198120E-05
 -0.221191	-6.164551E-05
 -0.226196	-6.127930E-05
 -0.231201	-6.091309E-05
 -0.236206	-6.060791E-05
 -0.241211	-6.027222E-05
 -0.246216	-5.996704E-05
 -0.251221	-5.969238E-05
 -0.256226	-5.938721E-05
 -0.261230	-5.911255E-05
 -0.266235	-5.886841E-05
 -0.271240	-5.862427E-05
 -0.276245	-5.838013E-05
 -0.281250	-5.816650E-05
 -0.286255	-5.792236E-05
 -0.291260	-5.773926E-05
 -0.296265	-5.752563E-05
 -0.296539	-4.084778E-05
 -0.291534	-3.002014E-05
 -0.286560	-2.911072E-05
 -0.281555	-2.853699E-05
 -0.276550	-2.811584E-05
 -0.271576	-2.773438E-05
 -0.266571	-2.738953E-05
 -0.261597	-2.703857E-05
 -0.256592	-2.676697E-05
 -0.251617	-2.648926E-05
 -0.246613	-2.621460E-05
 -0.241608	-2.598877E-05
 -0.236633	-2.573242E-05
 -0.231628	-2.548828E-05
 -0.226654	-2.527771E-05
 -0.221649	-2.507935E-05
 -0.216675	-2.489929E-05
 -0.211670	-2.468872E-05
 -0.206696	-2.450867E-05
 -0.201691	-2.432556E-05
 -0.196686	-2.413635E-05
 -0.191711	-2.397461E-05
 -0.186707	-2.378845E-05
 -0.181702	-2.364502E-05
 -0.176727	-2.348938E-05
 -0.171753	-2.331543E-05
 -0.166748	-2.317810E-05
 -0.161774	-2.301331E-05
 -0.156769	-2.288513E-05
 -0.151764	-2.274170E-05
 -0.146790	-2.259827E-05
 -0.141815	-2.246704E-05
 -0.136810	-2.233582E-05
 -0.131836	-2.219238E-05
 -0.126831	-2.207642E-05
 -0.121857	-2.195435E-05
 -0.116852	-2.183228E-05
 -0.111847	-2.169800E-05
 -0.106873	-2.159424E-05
 -0.101898	-2.145996E-05
 -0.096893	-2.136230E-05
 -0.091919	-2.122498E-05
 -0.086914	-2.111816E-05
 -0.081940	-2.098083E-05
 -0.076965	-2.087097E-05
 -0.071960	-2.074280E-05
 -0.066986	-2.060242E-05
 -0.061981	-2.046814E-05
 -0.056976	-2.032471E-05
 -0.052002	-2.017212E-05
 -0.047067	-2.000122E-05
 -0.042081	-1.982422E-05
 -0.037088	-1.963501E-05
 -0.032098	-1.945801E-05
 -0.027106	-1.921692E-05
 -0.022116	-1.900330E-05
 -0.017126	-1.872864E-05
 -0.012137	-1.843262E-05
 -0.007141	-1.809387E-05
 -0.002151	-1.773682E-05

 Potential	  Scan 4   
 0.002838	-1.728516E-05
 0.007843	-1.674500E-05
 0.012817	-1.627502E-05
 0.017810	-1.562500E-05
 0.022803	-1.492920E-05
 0.027792	-1.412354E-05
 0.032785	-1.314697E-05
 0.037775	-1.207275E-05
 0.042764	-1.079102E-05
 0.047757	-9.289551E-06
 0.052765	-7.540894E-06
 0.057739	-5.520630E-06
 0.062744	-3.180847E-06
 0.067749	-4.238892E-07
 0.072723	2.705078E-06
 0.077728	6.378174E-06
 0.082703	1.055908E-05
 0.087677	1.533508E-05
 0.092682	2.072754E-05
 0.097687	2.676697E-05
 0.102661	3.350525E-05
 0.107635	4.096069E-05
 0.112640	4.910278E-05
 0.117615	5.792236E-05
 0.122620	6.738281E-05
 0.127625	7.751465E-05
 0.132599	8.813477E-05
 0.137573	9.918213E-05
 0.142578	1.106873E-04
 0.147583	1.223755E-04
 0.152557	1.341248E-04
 0.157532	1.459351E-04
 0.162537	1.575012E-04
 0.167511	1.687622E-04
 0.172516	1.795044E-04
 0.177490	1.895447E-04
 0.182465	1.987305E-04
 0.187469	2.068787E-04
 0.192474	2.138062E-04
 0.197449	2.193298E-04
 0.202454	2.233276E-04
 0.207428	2.257385E-04
 0.212433	2.265015E-04
 0.217407	2.256165E-04
 0.222412	2.232361E-04
 0.227386	2.194824E-04
 0.232391	2.146301E-04
 0.237366	2.088623E-04
 0.242340	2.025452E-04
 0.247345	1.959534E-04
 0.252319	1.892090E-04
 0.257324	1.825867E-04
 0.262299	1.761475E-04
 0.267303	1.699829E-04
 0.272278	1.641541E-04
 0.277283	1.586609E-04
 0.282257	1.535339E-04
 0.287262	1.487427E-04
 0.292236	1.443176E-04
 0.297211	1.401367E-04
 0.302216	1.362610E-04
 0.307190	1.326294E-04
 0.312195	1.292419E-04
 0.317169	1.260681E-04
 0.322174	1.231079E-04
 0.327179	1.203003E-04
 0.332153	1.176758E-04
 0.337128	1.151733E-04
 0.342133	1.127930E-04
 0.347107	1.105652E-04
 0.352112	1.084290E-04
 0.357086	1.064148E-04
 0.362061	1.044922E-04
 0.367065	1.026306E-04
 0.372070	1.008911E-04
 0.377045	9.918213E-05
 0.382019	9.756470E-05
 0.387024	9.600830E-05
 0.391998	9.451294E-05
 0.397003	9.307861E-05
 0.401978	9.167480E-05
 0.406952	9.033203E-05
 0.411957	8.901978E-05
 0.416931	8.773804E-05
 0.421936	8.651733E-05
 0.426910	8.529663E-05
 0.431915	8.413696E-05
 0.436890	8.297729E-05
 0.441895	8.187866E-05
 0.446869	8.078003E-05
 0.451874	7.971191E-05
 0.456848	7.864380E-05
 0.461823	7.763672E-05
 0.466827	7.662964E-05
 0.471832	7.565308E-05
 0.476807	7.467651E-05
 0.481781	7.373047E-05
 0.486786	7.281494E-05
 0.491760	7.189941E-05
 0.496765	7.098389E-05
 0.498138	6.628418E-05
 0.493103	5.926514E-05
 0.488098	5.642700E-05
 0.483093	5.441284E-05
 0.478088	5.273438E-05
 0.473083	5.130005E-05
 0.468048	4.998779E-05
 0.463043	4.880981E-05
 0.458038	4.767456E-05
 0.453033	4.660950E-05
 0.448029	4.556885E-05
 0.443024	4.457703E-05
 0.437988	4.361877E-05
 0.432983	4.267578E-05
 0.427979	4.175415E-05
 0.422974	4.085693E-05
 0.417969	3.996887E-05
 0.412964	3.908997E-05
 0.407928	3.822021E-05
 0.402924	3.736877E-05
 0.397919	3.650513E-05
 0.392914	3.564453E-05
 0.387909	3.478394E-05
 0.382904	3.394470E-05
 0.377899	3.308411E-05
 0.372894	3.221741E-05
 0.367889	3.135681E-05
 0.362885	3.048706E-05
 0.357880	2.960510E-05
 0.352844	2.870178E-05
 0.347839	2.780457E-05
 0.342834	2.689209E-05
 0.337830	2.595215E-05
 0.332825	2.501221E-05
 0.327820	2.404480E-05
 0.322815	2.303467E-05
 0.317810	2.199402E-05
 0.312805	2.092285E-05
 0.307800	1.981201E-05
 0.302795	1.864624E-05
 0.297791	1.741333E-05
 0.292755	1.609802E-05
 0.287781	1.469421E-05
 0.282745	1.322937E-05
 0.277740	1.160889E-05
 0.272736	9.829712E-06
 0.267731	7.922363E-06
 0.262726	5.804443E-06
 0.257721	3.462830E-06
 0.252716	8.831787E-07
 0.247711	-2.038574E-06
 0.242706	-5.215454E-06
 0.237671	-8.822632E-06
 0.232666	-1.281128E-05
 0.227661	-1.726990E-05
 0.222656	-2.225342E-05
 0.217651	-2.772522E-05
 0.212646	-3.380127E-05
 0.207642	-4.048767E-05
 0.202637	-4.773560E-05
 0.197632	-5.560303E-05
 0.192627	-6.402588E-05
 0.187622	-7.308960E-05
 0.182587	-8.261108E-05
 0.177582	-9.259033E-05
 0.172577	-1.029358E-04
 0.167572	-1.135254E-04
 0.162567	-1.242676E-04
 0.157562	-1.350403E-04
 0.152557	-1.456604E-04
 0.147552	-1.560059E-04
 0.142548	-1.659546E-04
 0.137543	-1.752014E-04
 0.132538	-1.836853E-04
 0.127533	-1.911621E-04
 0.122528	-1.975098E-04
 0.117493	-2.024841E-04
 0.112488	-2.059937E-04
 0.107483	-2.079163E-04
 0.102478	-2.081299E-04
 0.097473	-2.066956E-04
 0.092468	-2.036133E-04
 0.087463	-1.990662E-04
 0.082458	-1.934509E-04
 0.077454	-1.871338E-04
 0.072449	-1.803589E-04
 0.067444	-1.734619E-04
 0.062439	-1.666565E-04
 0.057434	-1.600647E-04
 0.052429	-1.537781E-04
 0.047406	-1.478577E-04
 0.042395	-1.423035E-04
 0.037390	-1.371765E-04
 0.032382	-1.324158E-04
 0.027374	-1.279602E-04
 0.022363	-1.239014E-04
 0.017358	-1.200867E-04
 0.012350	-1.165161E-04
 0.007364	-1.132202E-04
 0.002335	-1.102600E-04
 -0.002667	-1.073608E-04
 -0.007678	-1.047668E-04
 -0.012689	-1.022644E-04
 -0.017694	-9.994507E-05
 -0.022702	-9.774780E-05
 -0.027713	-9.573364E-05
 -0.032721	-9.381104E-05
 -0.037726	-9.201050E-05
 -0.042734	-9.030151E-05
 -0.047742	-8.868408E-05
 -0.052704	-8.718872E-05
 -0.057709	-8.572388E-05
 -0.062714	-8.438110E-05
 -0.067719	-8.309937E-05
 -0.072723	-8.187866E-05
 -0.077728	-8.071899E-05
 -0.082733	-7.958984E-05
 -0.087738	-7.855225E-05
 -0.092743	-7.754517E-05
 -0.097748	-7.656860E-05
 -0.102753	-7.568359E-05
 -0.107758	-7.476807E-05
 -0.112762	-7.394409E-05
 -0.117767	-7.312012E-05
 -0.122772	-7.235718E-05
 -0.127777	-7.162476E-05
 -0.132782	-7.089233E-05
 -0.137787	-7.019043E-05
 -0.142792	-6.954956E-05
 -0.147797	-6.890869E-05
 -0.152802	-6.832886E-05
 -0.157806	-6.771851E-05
 -0.162811	-6.713867E-05
 -0.167816	-6.661987E-05
 -0.172821	-6.607056E-05
 -0.177826	-6.558228E-05
 -0.182831	-6.509399E-05
 -0.187866	-6.463623E-05
 -0.192871	-6.414795E-05
 -0.197876	-6.375122E-05
 -0.202881	-6.329346E-05
 -0.207886	-6.289673E-05
 -0.212891	-6.253052E-05
 -0.217896	-6.213379E-05
 -0.222900	-6.176758E-05
 -0.227905	-6.140137E-05
 -0.232910	-6.109619E-05
 -0.237915	-6.076050E-05
 -0.242920	-6.045532E-05
 -0.247925	-6.015015E-05
 -0.252930	-5.984497E-05
 -0.257935	-5.957031E-05
 -0.262939	-5.926514E-05
 -0.267944	-5.905151E-05
 -0.272949	-5.880737E-05
 -0.277954	-5.856323E-05
 -0.282959	-5.834961E-05
 -0.287964	-5.810547E-05
 -0.292969	-5.792236E-05
 -0.297974	-5.773926E-05
 -0.294250	-3.251038E-05
 -0.289246	-2.986145E-05
 -0.284271	-2.915649E-05
 -0.279266	-2.866821E-05
 -0.274292	-2.825012E-05
 -0.269287	-2.788696E-05
 -0.264313	-2.754822E-05
 -0.259308	-2.724609E-05
 -0.254303	-2.694092E-05
 -0.249329	-2.666016E-05
 -0.244324	-2.641296E-05
 -0.239349	-2.616577E-05
 -0.234344	-2.593689E-05
 -0.229340	-2.570496E-05
 -0.224365	-2.548218E-05
 -0.219360	-2.527466E-05
 -0.214386	-2.509155E-05
 -0.209381	-2.489624E-05
 -0.204407	-2.471313E-05
 -0.199402	-2.454224E-05
 -0.194427	-2.437134E-05
 -0.189423	-2.416687E-05
 -0.184418	-2.400818E-05
 -0.179443	-2.384644E-05
 -0.174438	-2.370911E-05
 -0.169464	-2.353516E-05
 -0.164459	-2.339172E-05
 -0.159454	-2.324524E-05
 -0.154480	-2.310181E-05
 -0.149475	-2.297058E-05
 -0.144501	-2.282410E-05
 -0.139526	-2.268066E-05
 -0.134521	-2.255554E-05
 -0.129517	-2.241516E-05
 -0.124542	-2.229309E-05
 -0.119537	-2.217712E-05
 -0.114563	-2.205200E-05
 -0.109558	-2.193909E-05
 -0.104584	-2.181091E-05
 -0.099579	-2.169495E-05
 -0.094604	-2.156372E-05
 -0.089600	-2.143860E-05
 -0.084625	-2.133789E-05
 -0.079620	-2.122192E-05
 -0.074646	-2.108154E-05
 -0.069672	-2.093811E-05
 -0.064667	-2.081909E-05
 -0.059662	-2.066345E-05
 -0.054688	-2.053223E-05
 -0.049683	-2.035522E-05
 -0.044760	-2.019043E-05
 -0.039771	-2.003479E-05
 -0.034775	-1.983337E-05
 -0.029785	-1.961060E-05
 -0.024792	-1.938171E-05
 -0.019803	-1.912537E-05
 -0.014813	-1.884460E-05
 -0.009818	-1.852722E-05
 -0.004816	-1.817322E-05

 Potential	  Scan 5   
 0.000162	-1.778259E-05
 0.005154	-1.731873E-05
 0.010144	-1.690369E-05
 0.015134	-1.624146E-05
 0.020123	-1.557617E-05
 0.025113	-1.481018E-05
 0.030106	-1.390381E-05
 0.035095	-1.287842E-05
 0.040085	-1.172791E-05
 0.045074	-1.034851E-05
 0.050079	-8.724976E-06
 0.055084	-6.826782E-06
 0.060059	-4.656982E-06
 0.065063	-2.135925E-06
 0.070068	7.998657E-07
 0.075043	4.223633E-06
 0.080048	8.111572E-06
 0.085022	1.257019E-05
 0.090027	1.766663E-05
 0.095001	2.337952E-05
 0.099976	2.975159E-05
 0.104980	3.686218E-05
 0.109955	4.465332E-05
 0.114960	5.310059E-05
 0.119934	6.228638E-05
 0.124939	7.208252E-05
 0.129944	8.245850E-05
 0.134918	9.332275E-05
 0.139923	1.045837E-04
 0.144897	1.161499E-04
 0.149872	1.278992E-04
 0.154877	1.396790E-04
 0.159851	1.513977E-04
 0.164856	1.628113E-04
 0.169830	1.738281E-04
 0.174805	1.842957E-04
 0.179810	1.939087E-04
 0.184814	2.025452E-04
 0.189789	2.101135E-04
 0.194794	2.163696E-04
 0.199768	2.210999E-04
 0.204773	2.243347E-04
 0.209747	2.259216E-04
 0.214752	2.258301E-04
 0.219727	2.241821E-04
 0.224731	2.210999E-04
 0.229706	2.167664E-04
 0.234680	2.114258E-04
 0.239685	2.053833E-04
 0.244659	1.988525E-04
 0.249664	1.921692E-04
 0.254669	1.854858E-04
 0.259644	1.789246E-04
 0.264618	1.726379E-04
 0.269623	1.666260E-04
 0.274597	1.609802E-04
 0.279602	1.556702E-04
 0.284576	1.507263E-04
 0.289581	1.461182E-04
 0.294556	1.418152E-04
 0.299530	1.377869E-04
 0.304535	1.340637E-04
 0.309540	1.305542E-04
 0.314514	1.272583E-04
 0.319519	1.241760E-04
 0.324493	1.213074E-04
 0.329468	1.185913E-04
 0.334473	1.159973E-04
 0.339447	1.135864E-04
 0.344452	1.112976E-04
 0.349426	1.091003E-04
 0.354431	1.070557E-04
 0.359406	1.050720E-04
 0.364410	1.031799E-04
 0.369385	1.013794E-04
 0.374390	9.963989E-05
 0.379364	9.799194E-05
 0.384369	9.640503E-05
 0.389343	9.484863E-05
 0.394348	9.338379E-05
 0.399323	9.197998E-05
 0.404297	9.060669E-05
 0.409302	8.926392E-05
 0.414276	8.801270E-05
 0.419281	8.673096E-05
 0.424255	8.551025E-05
 0.429260	8.432007E-05
 0.434235	8.319092E-05
 0.439240	8.203125E-05
 0.444214	8.093262E-05
 0.449219	7.986450E-05
 0.454193	7.882690E-05
 0.459198	7.775879E-05
 0.464172	7.675171E-05
 0.469177	7.574463E-05
 0.474152	7.479858E-05
 0.479126	7.382202E-05
 0.484131	7.290649E-05
 0.489105	7.196045E-05
 0.494110	7.107544E-05
 0.499084	7.022095E-05
 0.499268	6.365967E-05
 0.494232	5.828857E-05
 0.489227	5.566406E-05
 0.484222	5.371094E-05
 0.479218	5.209351E-05
 0.474213	5.068970E-05
 0.469208	4.945984E-05
 0.464172	4.826965E-05
 0.459198	4.715576E-05
 0.454163	4.609680E-05
 0.449158	4.508667E-05
 0.444153	4.410400E-05
 0.439148	4.317322E-05
 0.434113	4.223328E-05
 0.429108	4.133606E-05
 0.424103	4.044495E-05
 0.419098	3.956909E-05
 0.414093	3.870239E-05
 0.409088	3.784180E-05
 0.404083	3.699341E-05
 0.399048	3.614197E-05
 0.394043	3.530579E-05
 0.389038	3.444214E-05
 0.384033	3.360901E-05
 0.379028	3.276978E-05
 0.374023	3.190308E-05
 0.369019	3.105164E-05
 0.364014	3.018494E-05
 0.359009	2.931824E-05
 0.354004	2.842712E-05
 0.348999	2.754517E-05
 0.343964	2.663574E-05
 0.338959	2.571106E-05
 0.333954	2.479553E-05
 0.328949	2.381287E-05
 0.323944	2.281799E-05
 0.318939	2.181702E-05
 0.313934	2.073669E-05
 0.308929	1.964417E-05
 0.303894	1.849670E-05
 0.298889	1.728516E-05
 0.293884	1.599426E-05
 0.288879	1.464539E-05
 0.283875	1.317444E-05
 0.278870	1.159363E-05
 0.273865	9.878540E-06
 0.268860	7.998657E-06
 0.263855	5.944824E-06
 0.258850	3.686829E-06
 0.253845	1.142273E-06
 0.248840	-1.651917E-06
 0.243805	-4.766846E-06
 0.238800	-8.239746E-06
 0.233795	-1.212463E-05
 0.228790	-1.646729E-05
 0.223785	-2.130737E-05
 0.218781	-2.665100E-05
 0.213776	-3.257446E-05
 0.208771	-3.906250E-05
 0.203766	-4.615784E-05
 0.198761	-5.386353E-05
 0.193756	-6.219482E-05
 0.188751	-7.104492E-05
 0.183716	-8.041382E-05
 0.178711	-9.030151E-05
 0.173706	-1.004944E-04
 0.168701	-1.110840E-04
 0.163696	-1.217651E-04
 0.158691	-1.325073E-04
 0.153687	-1.431885E-04
 0.148682	-1.536255E-04
 0.143677	-1.636353E-04
 0.138672	-1.731262E-04
 0.133667	-1.818237E-04
 0.128662	-1.895142E-04
 0.123657	-1.961670E-04
 0.118652	-2.014771E-04
 0.113647	-2.053833E-04
 0.108643	-2.077026E-04
 0.103607	-2.083740E-04
 0.098633	-2.073669E-04
 0.093628	-2.046814E-04
 0.088623	-2.004700E-04
 0.083618	-1.950989E-04
 0.078613	-1.889038E-04
 0.073608	-1.822510E-04
 0.068604	-1.753845E-04
 0.063568	-1.685181E-04
 0.058563	-1.618652E-04
 0.053558	-1.555176E-04
 0.048547	-1.495056E-04
 0.043542	-1.438599E-04
 0.038531	-1.386414E-04
 0.033524	-1.337585E-04
 0.028513	-1.292419E-04
 0.023508	-1.250610E-04
 0.018494	-1.212158E-04
 0.013489	-1.176147E-04
 0.008484	-1.142883E-04
 0.003476	-1.112366E-04
 -0.001532	-1.082764E-04
 -0.006543	-1.056824E-04
 -0.011548	-1.030884E-04
 -0.016556	-1.007080E-04
 -0.021567	-9.851074E-05
 -0.026572	-9.643555E-05
 -0.031577	-9.448242E-05
 -0.036584	-9.265137E-05
 -0.041595	-9.094238E-05
 -0.046600	-8.932495E-05
 -0.051544	-8.776855E-05
 -0.056549	-8.630371E-05
 -0.061554	-8.493042E-05
 -0.066589	-8.361816E-05
 -0.071564	-8.239746E-05
 -0.076599	-8.123779E-05
 -0.081604	-8.010864E-05
 -0.086609	-7.901001E-05
 -0.091614	-7.800293E-05
 -0.096588	-7.702637E-05
 -0.101624	-7.611084E-05
 -0.106628	-7.522583E-05
 -0.111633	-7.437134E-05
 -0.116638	-7.354736E-05
 -0.121643	-7.278442E-05
 -0.126648	-7.202148E-05
 -0.131653	-7.128906E-05
 -0.136658	-7.061768E-05
 -0.141663	-6.991577E-05
 -0.146667	-6.927490E-05
 -0.151672	-6.866455E-05
 -0.156677	-6.805420E-05
 -0.161682	-6.750488E-05
 -0.166687	-6.695557E-05
 -0.171692	-6.640625E-05
 -0.176697	-6.591797E-05
 -0.181702	-6.542969E-05
 -0.186707	-6.494141E-05
 -0.191711	-6.451416E-05
 -0.196716	-6.405640E-05
 -0.201721	-6.362915E-05
 -0.206726	-6.323242E-05
 -0.211731	-6.283569E-05
 -0.216736	-6.243896E-05
 -0.221741	-6.204224E-05
 -0.226746	-6.170654E-05
 -0.231750	-6.137085E-05
 -0.236755	-6.103516E-05
 -0.241760	-6.069946E-05
 -0.246765	-6.042480E-05
 -0.251770	-6.015015E-05
 -0.256805	-5.984497E-05
 -0.261780	-5.957031E-05
 -0.266785	-5.929565E-05
 -0.271790	-5.905151E-05
 -0.276794	-5.883789E-05
 -0.281799	-5.859375E-05
 -0.286804	-5.838013E-05
 -0.291809	-5.819702E-05
 -0.296814	-5.795288E-05
 -0.295105	-3.528748E-05
 -0.290100	-3.025818E-05
 -0.285095	-2.947083E-05
 -0.280121	-2.896729E-05
 -0.275116	-2.853088E-05
 -0.270111	-2.817383E-05
 -0.265137	-2.782288E-05
 -0.260132	-2.751770E-05
 -0.255157	-2.723083E-05
 -0.250153	-2.692566E-05
 -0.245148	-2.666626E-05
 -0.240173	-2.642822E-05
 -0.235168	-2.620239E-05
 -0.230194	-2.596436E-05
 -0.225189	-2.573242E-05
 -0.220215	-2.550659E-05
 -0.215210	-2.531738E-05
 -0.210236	-2.514648E-05
 -0.205231	-2.496948E-05
 -0.200226	-2.476501E-05
 -0.195251	-2.460632E-05
 -0.190247	-2.443848E-05
 -0.185242	-2.424622E-05
 -0.180267	-2.409058E-05
 -0.175262	-2.393799E-05
 -0.170288	-2.379150E-05
 -0.165283	-2.362366E-05
 -0.160309	-2.346497E-05
 -0.155304	-2.331848E-05
 -0.150330	-2.319031E-05
 -0.145325	-2.304688E-05
 -0.140350	-2.291565E-05
 -0.135345	-2.276917E-05
 -0.130341	-2.264099E-05
 -0.125366	-2.252502E-05
 -0.120361	-2.237854E-05
 -0.115387	-2.225647E-05
 -0.110382	-2.214661E-05
 -0.105408	-2.203369E-05
 -0.100403	-2.190247E-05
 -0.095428	-2.179871E-05
 -0.090424	-2.166138E-05
 -0.085449	-2.156982E-05
 -0.080444	-2.142334E-05
 -0.075470	-2.129517E-05
 -0.070465	-2.117004E-05
 -0.065491	-2.102661E-05
 -0.060486	-2.088013E-05
 -0.055481	-2.073975E-05
 -0.050507	-2.058411E-05
 -0.045578	-2.042847E-05
 -0.040582	-2.023315E-05
 -0.035593	-2.006531E-05
 -0.030600	-1.984253E-05
 -0.025607	-1.960449E-05
 -0.020618	-1.935425E-05
 -0.015625	-1.907043E-05
 -0.010635	-1.875916E-05
 -0.005640	-1.841125E-05
 -0.000650	-1.806946E-05
