Date: 15-08-25
Time: 14:40:21 PM

Exp. Conditions:
Cyclic voltammetry
Start potential (V) = .0000
First vertex potential (V) = .5000
Second vertex potential (V) = -.3000
Step potential (V) = .02000
Scan rate (V/s) = .99976
Equilibration time (s) = 
Number of Data Points =  80 

 Potential	  Scan 1   
 0.007794	8.056641E-06
 0.037927	4.274292E-05
 0.057953	5.685425E-05
 0.077942	8.117676E-05
 0.097900	1.199341E-04
 0.117889	1.749878E-04
 0.137848	2.447205E-04
 0.157806	3.245239E-04
 0.177765	4.080811E-04
 0.197754	4.870300E-04
 0.217743	5.511475E-04
 0.237701	5.874634E-04
 0.257660	5.838013E-04
 0.277649	5.404663E-04
 0.297577	4.816284E-04
 0.317566	4.298401E-04
 0.337524	3.903198E-04
 0.357513	3.602600E-04
 0.377472	3.366699E-04
 0.397430	3.175049E-04
 0.417389	3.014221E-04
 0.437378	2.873230E-04
 0.457336	2.743530E-04
 0.477295	2.619324E-04
 0.497284	2.497253E-04
 0.487946	1.958618E-04
 0.467926	1.679993E-04
 0.447937	1.506653E-04
 0.427917	1.366882E-04
 0.407928	1.241455E-04
 0.387909	1.121826E-04
 0.367920	1.003113E-04
 0.347931	8.819580E-05
 0.327942	7.546997E-05
 0.307922	6.176758E-05
 0.287933	4.657898E-05
 0.267944	2.859192E-05
 0.247955	6.179810E-06
 0.227966	-2.303162E-05
 0.207977	-6.198120E-05
 0.187988	-1.125793E-04
 0.167999	-1.750488E-04
 0.147980	-2.467957E-04
 0.127991	-3.223877E-04
 0.108002	-3.938293E-04
 0.088013	-4.501953E-04
 0.068054	-4.772339E-04
 0.048035	-4.605713E-04
 0.028043	-4.039612E-04
 0.008063	-3.424377E-04
 -0.011951	-2.956238E-04
 -0.031952	-2.619629E-04
 -0.051910	-2.373352E-04
 -0.071899	-2.189331E-04
 -0.091888	-2.049255E-04
 -0.111877	-1.940002E-04
 -0.131897	-1.853638E-04
 -0.151886	-1.783752E-04
 -0.171875	-1.726990E-04
 -0.191864	-1.679688E-04
 -0.211823	-1.641235E-04
 -0.231842	-1.609192E-04
 -0.251831	-1.583557E-04
 -0.271820	-1.563416E-04
 -0.291779	-1.547852E-04
 -0.286011	-5.297852E-05
 -0.266022	-1.914368E-05
 -0.246033	-1.498108E-05
 -0.226074	-1.281433E-05
 -0.206085	-1.134949E-05
 -0.186096	-1.028748E-05
 -0.166138	-9.451294E-06
 -0.146149	-8.792114E-06
 -0.126160	-8.444214E-06
 -0.106201	-8.032227E-06
 -0.086243	-7.562256E-06
 -0.066284	-6.997681E-06
 -0.046378	-6.106567E-06
 -0.026407	-4.614258E-06
 -0.006427	-1.930237E-06

 Potential	  Scan 2   
 0.013547	2.618713E-06
 0.033521	1.034546E-05
 0.053528	2.394714E-05
 0.073517	4.739380E-05
 0.093506	8.493042E-05
 0.113464	1.385498E-04
 0.133453	2.070923E-04
 0.153412	2.862244E-04
 0.173370	3.698120E-04
 0.193329	4.499512E-04
 0.213318	5.163574E-04
 0.233276	5.569458E-04
 0.253265	5.587769E-04
 0.273224	5.197144E-04
 0.293182	4.615173E-04
 0.313141	4.083252E-04
 0.333099	3.673096E-04
 0.353088	3.361511E-04
 0.373047	3.117676E-04
 0.393036	2.920532E-04
 0.412994	2.756653E-04
 0.432953	2.616272E-04
 0.452911	2.490234E-04
 0.472900	2.373352E-04
 0.492859	2.262268E-04
 0.492584	1.837769E-04
 0.472595	1.506653E-04
 0.452576	1.331482E-04
 0.432556	1.194763E-04
 0.412567	1.074524E-04
 0.392548	9.603882E-05
 0.372559	8.480835E-05
 0.352570	7.327271E-05
 0.332581	6.121826E-05
 0.312561	4.830933E-05
 0.292572	3.407288E-05
 0.272583	1.741028E-05
 0.252594	-3.021240E-06
 0.232605	-2.954712E-05
 0.212616	-6.494141E-05
 0.192627	-1.114502E-04
 0.172638	-1.700439E-04
 0.152649	-2.390137E-04
 0.132660	-3.136597E-04
 0.112640	-3.867493E-04
 0.092682	-4.481201E-04
 0.072693	-4.845581E-04
 0.052673	-4.810791E-04
 0.032684	-4.330750E-04
 0.012695	-3.700256E-04
 -0.007315	-3.189392E-04
 -0.027304	-2.822266E-04
 -0.047299	-2.553711E-04
 -0.067261	-2.353210E-04
 -0.087250	-2.200623E-04
 -0.107239	-2.081604E-04
 -0.127228	-1.987610E-04
 -0.147217	-1.911316E-04
 -0.167206	-1.848755E-04
 -0.187195	-1.797485E-04
 -0.207214	-1.755066E-04
 -0.227203	-1.719971E-04
 -0.247162	-1.691895E-04
 -0.267151	-1.669006E-04
 -0.287140	-1.651001E-04
 -0.290527	-1.049805E-04
 -0.270538	-3.119202E-05
 -0.250549	-2.549438E-05
 -0.230560	-2.300110E-05
 -0.210602	-2.128601E-05
 -0.190613	-1.999207E-05
 -0.170624	-1.896973E-05
 -0.150696	-1.796570E-05
 -0.130707	-1.763916E-05
 -0.110718	-1.709595E-05
 -0.090790	-1.653137E-05
 -0.070801	-1.585388E-05
 -0.050812	-1.492310E-05
 -0.030920	-1.339417E-05
 -0.010944	-1.086731E-05

 Potential	  Scan 3   
 0.009042	-6.637573E-06
 0.029013	3.436279E-07
 0.048981	1.264343E-05
 0.069000	3.389893E-05
 0.088959	6.842041E-05
 0.108948	1.189575E-04
 0.128906	1.847839E-04
 0.148895	2.622681E-04
 0.168854	3.455200E-04
 0.188812	4.269714E-04
 0.208771	4.968262E-04
 0.228760	5.438232E-04
 0.248749	5.538940E-04
 0.268707	5.221558E-04
 0.288666	4.653931E-04
 0.308624	4.100952E-04
 0.328613	3.667908E-04
 0.348572	3.339539E-04
 0.368530	3.083496E-04
 0.388489	2.878113E-04
 0.408478	2.708130E-04
 0.428436	2.563171E-04
 0.448395	2.434692E-04
 0.468353	2.317200E-04
 0.488342	2.205505E-04
 0.494385	1.919861E-04
 0.474365	1.473083E-04
 0.454376	1.288757E-04
 0.434357	1.149292E-04
 0.414368	1.028137E-04
 0.394348	9.143066E-05
 0.374359	8.026123E-05
 0.354370	6.887817E-05
 0.334351	5.694580E-05
 0.314362	4.427795E-05
 0.294373	3.020630E-05
 0.274384	1.393738E-05
 0.254395	-5.932617E-06
 0.234375	-3.158875E-05
 0.214386	-6.567383E-05
 0.194397	-1.108093E-04
 0.174408	-1.679993E-04
 0.154419	-2.359009E-04
 0.134430	-3.100891E-04
 0.114441	-3.836060E-04
 0.094452	-4.466858E-04
 0.074463	-4.863892E-04
 0.054443	-4.877319E-04
 0.034457	-4.437561E-04
 0.014465	-3.806458E-04
 -0.005527	-3.280945E-04
 -0.025531	-2.900085E-04
 -0.045520	-2.622986E-04
 -0.065491	-2.416382E-04
 -0.085480	-2.259216E-04
 -0.105469	-2.137146E-04
 -0.125458	-2.040405E-04
 -0.145447	-1.962585E-04
 -0.165436	-1.898804E-04
 -0.185425	-1.845703E-04
 -0.205414	-1.802063E-04
 -0.225403	-1.766357E-04
 -0.245392	-1.736755E-04
 -0.265381	-1.712952E-04
 -0.285370	-1.694336E-04
 -0.293152	-1.419067E-04
 -0.273132	-3.668823E-05
 -0.253174	-2.997742E-05
 -0.233185	-2.726135E-05
 -0.213196	-2.545166E-05
 -0.193237	-2.409668E-05
 -0.173248	-2.304077E-05
 -0.153259	-2.191467E-05
 -0.133301	-2.162170E-05
 -0.113312	-2.099609E-05
 -0.093384	-2.041626E-05
 -0.073395	-1.971741E-05
 -0.053406	-1.878662E-05
 -0.033524	-1.732178E-05
 -0.013547	-1.491089E-05

 Potential	  Scan 4   
 0.006436	-1.096497E-05
 0.026410	-4.269409E-06
 0.046381	7.247925E-06
 0.066376	2.724915E-05
 0.086365	6.008911E-05
 0.106354	1.086731E-04
 0.126312	1.728821E-04
 0.146271	2.492676E-04
 0.166260	3.321838E-04
 0.186188	4.143066E-04
 0.206177	4.862366E-04
 0.226166	5.361938E-04
 0.246124	5.511475E-04
 0.266113	5.239868E-04
 0.286041	4.686584E-04
 0.306030	4.122925E-04
 0.325989	3.675232E-04
 0.345978	3.335876E-04
 0.365936	3.072510E-04
 0.385895	2.861328E-04
 0.405853	2.687683E-04
 0.425842	2.539673E-04
 0.445801	2.409668E-04
 0.465790	2.290955E-04
 0.485718	2.178955E-04
 0.499573	2.064819E-04
 0.479248	1.479797E-04
 0.459229	1.282043E-04
 0.439240	1.139221E-04
 0.419220	1.016846E-04
 0.399231	9.039307E-05
 0.379242	7.931519E-05
 0.359222	6.811523E-05
 0.339233	5.645752E-05
 0.319244	4.412231E-05
 0.299225	3.049622E-05
 0.279266	1.495972E-05
 0.259247	-3.771973E-06
 0.239258	-2.773438E-05
 0.219269	-5.932617E-05
 0.199280	-1.013184E-04
 0.179291	-1.553955E-04
 0.159302	-2.207642E-04
 0.139313	-2.937927E-04
 0.119293	-3.681641E-04
 0.099335	-4.348755E-04
 0.079346	-4.817505E-04
 0.059326	-4.940796E-04
 0.039352	-4.606018E-04
 0.019345	-3.986816E-04
 -0.000650	-3.423767E-04
 -0.020651	-3.010559E-04
 -0.040646	-2.711182E-04
 -0.060608	-2.489624E-04
 -0.080597	-2.321167E-04
 -0.100586	-2.191467E-04
 -0.120575	-2.088928E-04
 -0.140564	-2.006531E-04
 -0.160553	-1.939392E-04
 -0.180542	-1.883850E-04
 -0.200562	-1.838074E-04
 -0.220520	-1.799927E-04
 -0.240509	-1.768799E-04
 -0.260498	-1.743469E-04
 -0.280518	-1.723328E-04
 -0.295563	-1.708069E-04
 -0.275574	-4.282837E-05
 -0.255585	-3.341064E-05
 -0.235596	-3.042908E-05
 -0.215637	-2.847290E-05
 -0.195648	-2.699280E-05
 -0.175659	-2.579346E-05
 -0.155701	-2.465820E-05
 -0.135712	-2.430725E-05
 -0.115753	-2.366943E-05
 -0.095764	-2.304382E-05
 -0.075806	-2.232666E-05
 -0.055817	-2.141418E-05
 -0.035941	-1.999817E-05
 -0.015964	-1.768188E-05

 Potential	  Scan 5   
 0.004007	-1.394043E-05
 0.023990	-7.604980E-06
 0.043973	3.198242E-06
 0.063965	2.205505E-05
 0.083954	5.319214E-05
 0.103943	9.994507E-05
 0.123901	1.624756E-04
 0.143890	2.377930E-04
 0.163849	3.202515E-04
 0.183807	4.028625E-04
 0.203766	4.765015E-04
 0.223755	5.297852E-04
 0.243713	5.493164E-04
 0.263702	5.267334E-04
 0.283661	4.731445E-04
 0.303619	4.158630E-04
 0.323578	3.696594E-04
 0.343567	3.346558E-04
 0.363525	3.075256E-04
 0.383484	2.858582E-04
 0.403473	2.680664E-04
 0.423431	2.530212E-04
 0.443390	2.398376E-04
 0.463379	2.278137E-04
 0.483337	2.165833E-04
 0.502014	2.058716E-04
 0.482208	1.491394E-04
 0.462219	1.281433E-04
 0.442230	1.134949E-04
 0.422211	1.011658E-04
 0.402222	8.981323E-05
 0.382233	7.882690E-05
 0.362213	6.771851E-05
 0.342224	5.618286E-05
 0.322235	4.401855E-05
 0.302246	3.065491E-05
 0.282257	1.547241E-05
 0.262238	-2.609253E-06
 0.242249	-2.549133E-05
 0.222260	-5.569458E-05
 0.202271	-9.588623E-05
 0.182281	-1.480408E-04
 0.162292	-2.117310E-04
 0.142303	-2.838135E-04
 0.122284	-3.585205E-04
 0.102325	-4.270020E-04
 0.082336	-4.778442E-04
 0.062347	-4.964905E-04
 0.042337	-4.700928E-04
 0.022339	-4.100952E-04
 0.002344	-3.515930E-04
 -0.017654	-3.082581E-04
 -0.037650	-2.768555E-04
 -0.057617	-2.536316E-04
 -0.077606	-2.361145E-04
 -0.097595	-2.225952E-04
 -0.117584	-2.119751E-04
 -0.137573	-2.034912E-04
 -0.157562	-1.965332E-04
 -0.177551	-1.907959E-04
 -0.197540	-1.860962E-04
 -0.217529	-1.821594E-04
 -0.237518	-1.789246E-04
 -0.257538	-1.763306E-04
 -0.277496	-1.742249E-04
 -0.297485	-1.725769E-04
 -0.281738	-5.194092E-05
 -0.261780	-3.569946E-05
 -0.241760	-3.219910E-05
 -0.221802	-3.008728E-05
 -0.201813	-2.852173E-05
 -0.181824	-2.733765E-05
 -0.161865	-2.636719E-05
 -0.141907	-2.528076E-05
 -0.121918	-2.503967E-05
 -0.101929	-2.447205E-05
 -0.081970	-2.381897E-05
 -0.062012	-2.295837E-05
 -0.042117	-2.175903E-05
 -0.022141	-1.975403E-05
 -0.002155	-1.647949E-05
