Date: 15-08-25
Time: 15:03:47 PM

Exp. Conditions:
Cyclic voltammetry
Start potential (V) = .0000
First vertex potential (V) = .5000
Second vertex potential (V) = -.3000
Step potential (V) = .01500
Scan rate (V/s) = .99973
Equilibration time (s) = 
Number of Data Points =  107 

 Potential	  Scan 1   
 0.005930	1.155090E-05
 0.028561	3.766479E-05
 0.043564	4.364319E-05
 0.058594	5.249023E-05
 0.073578	6.649780E-05
 0.088531	8.822632E-05
 0.103516	1.203613E-04
 0.118500	1.646729E-04
 0.133484	2.213135E-04
 0.148468	2.882996E-04
 0.163452	3.617859E-04
 0.178406	4.361267E-04
 0.193390	5.044556E-04
 0.208374	5.590820E-04
 0.223358	5.914307E-04
 0.238342	5.957031E-04
 0.253326	5.722046E-04
 0.268280	5.310059E-04
 0.283264	4.855957E-04
 0.298248	4.442749E-04
 0.313232	4.098206E-04
 0.328217	3.816833E-04
 0.343170	3.585815E-04
 0.358185	3.393555E-04
 0.373138	3.230286E-04
 0.388123	3.089600E-04
 0.403076	2.966309E-04
 0.418060	2.856445E-04
 0.433044	2.755127E-04
 0.448029	2.658997E-04
 0.462982	2.566528E-04
 0.477966	2.475586E-04
 0.492950	2.386169E-04
 0.496674	2.091370E-04
 0.481659	1.749573E-04
 0.466644	1.595154E-04
 0.451660	1.477966E-04
 0.436646	1.376953E-04
 0.421631	1.284485E-04
 0.406647	1.195984E-04
 0.391632	1.108398E-04
 0.376648	1.019897E-04
 0.361633	9.280396E-05
 0.346649	8.303833E-05
 0.331635	7.247925E-05
 0.316650	6.085205E-05
 0.301636	4.787292E-05
 0.286652	3.290405E-05
 0.271637	1.529236E-05
 0.256653	-5.889893E-06
 0.241669	-3.189392E-05
 0.226654	-6.423950E-05
 0.211670	-1.043396E-04
 0.196686	-1.530457E-04
 0.181671	-2.099915E-04
 0.166687	-2.730713E-04
 0.151672	-3.381348E-04
 0.136688	-3.991394E-04
 0.121674	-4.483643E-04
 0.106689	-4.770203E-04
 0.091705	-4.784546E-04
 0.076721	-4.512329E-04
 0.061707	-4.054260E-04
 0.046710	-3.585205E-04
 0.031708	-3.190002E-04
 0.016708	-2.874756E-04
 0.001712	-2.624207E-04
 -0.013290	-2.421875E-04
 -0.028287	-2.255859E-04
 -0.043289	-2.120972E-04
 -0.058228	-2.010498E-04
 -0.073242	-1.919861E-04
 -0.088257	-1.844788E-04
 -0.103241	-1.781921E-04
 -0.118225	-1.728210E-04
 -0.133209	-1.682739E-04
 -0.148224	-1.643982E-04
 -0.163208	-1.611023E-04
 -0.178223	-1.581116E-04
 -0.193207	-1.556702E-04
 -0.208191	-1.535034E-04
 -0.223206	-1.516724E-04
 -0.238190	-1.501465E-04
 -0.253174	-1.488647E-04
 -0.268188	-1.477966E-04
 -0.283173	-1.470337E-04
 -0.298004	-1.464233E-04
 -0.285187	-2.091980E-05
 -0.270203	-1.160583E-05
 -0.255219	-9.185791E-06
 -0.240234	-7.666016E-06
 -0.225250	-6.536865E-06
 -0.210266	-5.792236E-06
 -0.195282	-5.032349E-06
 -0.180298	-4.806519E-06
 -0.165314	-4.445801E-06
 -0.150330	-4.187622E-06
 -0.135345	-3.995056E-06
 -0.120361	-3.813782E-06
 -0.105377	-3.677368E-06
 -0.090393	-3.421021E-06
 -0.075439	-3.166809E-06
 -0.060455	-2.798157E-06
 -0.045560	-2.251587E-06
 -0.030573	-1.354065E-06
 -0.015598	1.632690E-08
 -0.000623	2.248230E-06

 Potential	  Scan 2   
 0.014383	5.050659E-06
 0.029361	9.490967E-06
 0.044345	1.595154E-05
 0.059357	2.573242E-05
 0.074341	4.100647E-05
 0.089355	6.414795E-05
 0.104309	9.802246E-05
 0.119293	1.441650E-04
 0.134277	2.023621E-04
 0.149261	2.705383E-04
 0.164215	3.445129E-04
 0.179199	4.185791E-04
 0.194183	4.857788E-04
 0.209167	5.377197E-04
 0.224152	5.670166E-04
 0.239136	5.676270E-04
 0.254120	5.416870E-04
 0.269073	4.995728E-04
 0.284058	4.547729E-04
 0.299042	4.143372E-04
 0.314026	3.806763E-04
 0.328979	3.531494E-04
 0.343964	3.304443E-04
 0.358948	3.114319E-04
 0.373932	2.953186E-04
 0.388916	2.814636E-04
 0.403870	2.693176E-04
 0.418854	2.585144E-04
 0.433838	2.486877E-04
 0.448822	2.395325E-04
 0.463776	2.308350E-04
 0.478760	2.224426E-04
 0.493744	2.143860E-04
 0.497467	1.863708E-04
 0.482452	1.540222E-04
 0.467438	1.394958E-04
 0.452454	1.285095E-04
 0.437439	1.190491E-04
 0.422424	1.103516E-04
 0.407440	1.020508E-04
 0.392426	9.378052E-05
 0.377441	8.538818E-05
 0.362427	7.666016E-05
 0.347443	6.732178E-05
 0.332428	5.715942E-05
 0.317444	4.603577E-05
 0.302429	3.338623E-05
 0.287445	1.889343E-05
 0.272430	1.824951E-06
 0.257446	-1.864624E-05
 0.242462	-4.380798E-05
 0.227448	-7.434082E-05
 0.212463	-1.141052E-04
 0.197449	-1.614685E-04
 0.182465	-2.171936E-04
 0.167450	-2.792053E-04
 0.152466	-3.437805E-04
 0.137482	-4.044800E-04
 0.122498	-4.546814E-04
 0.107483	-4.852295E-04
 0.092499	-4.891357E-04
 0.077515	-4.644775E-04
 0.062500	-4.199524E-04
 0.047495	-3.730469E-04
 0.032504	-3.330078E-04
 0.017505	-3.009644E-04
 0.002505	-2.754211E-04
 -0.012494	-2.548523E-04
 -0.027490	-2.380066E-04
 -0.042496	-2.241821E-04
 -0.057465	-2.128296E-04
 -0.072449	-2.035522E-04
 -0.087433	-1.957703E-04
 -0.102448	-1.892090E-04
 -0.117432	-1.836548E-04
 -0.132446	-1.788940E-04
 -0.147430	-1.748047E-04
 -0.162445	-1.712952E-04
 -0.177399	-1.682129E-04
 -0.192413	-1.655579E-04
 -0.207397	-1.632996E-04
 -0.222412	-1.613770E-04
 -0.237396	-1.596375E-04
 -0.252380	-1.582947E-04
 -0.267365	-1.571655E-04
 -0.282379	-1.562805E-04
 -0.297363	-1.555786E-04
 -0.286041	-3.181152E-05
 -0.271027	-2.098083E-05
 -0.256042	-1.830750E-05
 -0.241058	-1.665955E-05
 -0.226074	-1.549988E-05
 -0.211090	-1.461182E-05
 -0.196106	-1.335449E-05
 -0.181122	-1.343079E-05
 -0.166138	-1.297302E-05
 -0.151154	-1.253357E-05
 -0.136169	-1.231689E-05
 -0.121185	-1.206360E-05
 -0.106232	-1.185303E-05
 -0.091248	-1.158142E-05
 -0.076263	-1.121826E-05
 -0.061279	-1.077881E-05
 -0.046390	-1.016235E-05
 -0.031400	-9.201050E-06
 -0.016403	-7.736206E-06
 -0.001428	-5.456543E-06

 Potential	  Scan 3   
 0.013547	-2.661133E-06
 0.028531	1.806335E-06
 0.043524	8.206177E-06
 0.058563	1.793518E-05
 0.073517	3.294678E-05
 0.088501	5.599976E-05
 0.103485	8.953857E-05
 0.118469	1.352844E-04
 0.133453	1.931152E-04
 0.148438	2.609863E-04
 0.163391	3.348083E-04
 0.178375	4.087830E-04
 0.193359	4.763794E-04
 0.208344	5.288696E-04
 0.223328	5.587769E-04
 0.238281	5.606079E-04
 0.253265	5.352783E-04
 0.268250	4.934692E-04
 0.283234	4.488831E-04
 0.298218	4.082642E-04
 0.313171	3.744812E-04
 0.328156	3.466797E-04
 0.343140	3.238220E-04
 0.358124	3.046875E-04
 0.373108	2.884521E-04
 0.388062	2.744446E-04
 0.403046	2.622375E-04
 0.417999	2.513733E-04
 0.433014	2.414856E-04
 0.447998	2.322998E-04
 0.462952	2.236328E-04
 0.477936	2.153015E-04
 0.492920	2.073059E-04
 0.496613	1.795349E-04
 0.481628	1.474915E-04
 0.466614	1.331787E-04
 0.451630	1.222839E-04
 0.436615	1.129456E-04
 0.421600	1.043396E-04
 0.406586	9.609985E-05
 0.391602	8.792114E-05
 0.376587	7.962036E-05
 0.361603	7.092285E-05
 0.346588	6.164551E-05
 0.331604	5.151367E-05
 0.316620	4.040222E-05
 0.301605	2.772217E-05
 0.286621	1.320496E-05
 0.271606	-3.939819E-06
 0.256622	-2.455139E-05
 0.241608	-4.983521E-05
 0.226624	-8.053589E-05
 0.211639	-1.205139E-04
 0.196625	-1.681519E-04
 0.181610	-2.239685E-04
 0.166626	-2.859497E-04
 0.151642	-3.503418E-04
 0.136658	-4.105835E-04
 0.121643	-4.599609E-04
 0.106659	-4.894714E-04
 0.091675	-4.921875E-04
 0.076660	-4.665222E-04
 0.061676	-4.218140E-04
 0.046680	-3.751221E-04
 0.031680	-3.355408E-04
 0.016678	-3.039246E-04
 0.001678	-2.787476E-04
 -0.013321	-2.582397E-04
 -0.028320	-2.415161E-04
 -0.043323	-2.278137E-04
 -0.058289	-2.166138E-04
 -0.073273	-2.073059E-04
 -0.088257	-1.996155E-04
 -0.103271	-1.930847E-04
 -0.118256	-1.875916E-04
 -0.133270	-1.828003E-04
 -0.148254	-1.787415E-04
 -0.163239	-1.752319E-04
 -0.178253	-1.721191E-04
 -0.193237	-1.694946E-04
 -0.208221	-1.671448E-04
 -0.223236	-1.652222E-04
 -0.238220	-1.635742E-04
 -0.253204	-1.622009E-04
 -0.268219	-1.610107E-04
 -0.283203	-1.600952E-04
 -0.297729	-1.594543E-04
 -0.284210	-3.314514E-05
 -0.269226	-2.463379E-05
 -0.254242	-2.214661E-05
 -0.239258	-2.051392E-05
 -0.224274	-1.930237E-05
 -0.209290	-1.840820E-05
 -0.194305	-1.697998E-05
 -0.179291	-1.721191E-05
 -0.164307	-1.673279E-05
 -0.149323	-1.632996E-05
 -0.134369	-1.604614E-05
 -0.119385	-1.571960E-05
 -0.104401	-1.544495E-05
 -0.089417	-1.518860E-05
 -0.074432	-1.480408E-05
 -0.059448	-1.432190E-05
 -0.044568	-1.365356E-05
 -0.029578	-1.257019E-05
 -0.014600	-1.098633E-05

 Potential	  Scan 4   
 0.000381	-8.663940E-06
 0.015366	-5.563354E-06
 0.030347	-9.054565E-07
 0.045337	5.807495E-06
 0.060364	1.612854E-05
 0.075348	3.211975E-05
 0.090332	5.636597E-05
 0.105316	9.146118E-05
 0.120300	1.388245E-04
 0.135254	1.981201E-04
 0.150238	2.669678E-04
 0.165222	3.411560E-04
 0.180176	4.146729E-04
 0.195190	4.808350E-04
 0.210144	5.307007E-04
 0.225128	5.572510E-04
 0.240112	5.548096E-04
 0.255096	5.270386E-04
 0.270081	4.844360E-04
 0.285034	4.396667E-04
 0.300018	3.999329E-04
 0.315002	3.669128E-04
 0.329987	3.398743E-04
 0.344971	3.175049E-04
 0.359924	2.987671E-04
 0.374908	2.828064E-04
 0.389893	2.690430E-04
 0.404877	2.569885E-04
 0.419830	2.462158E-04
 0.434814	2.364197E-04
 0.449799	2.273560E-04
 0.464783	2.187195E-04
 0.479767	2.104492E-04
 0.494720	2.025146E-04
 0.496277	1.697388E-04
 0.481262	1.426697E-04
 0.466248	1.288757E-04
 0.451263	1.182861E-04
 0.436249	1.091309E-04
 0.421234	1.006775E-04
 0.406250	9.255981E-05
 0.391235	8.447266E-05
 0.376251	7.623291E-05
 0.361237	6.759644E-05
 0.346252	5.834961E-05
 0.331238	4.835205E-05
 0.316254	3.717651E-05
 0.301239	2.451172E-05
 0.286255	9.936523E-06
 0.271271	-7.180786E-06
 0.256256	-2.782898E-05
 0.241241	-5.255127E-05
 0.226257	-8.483887E-05
 0.211273	-1.239624E-04
 0.196259	-1.716003E-04
 0.181244	-2.274170E-04
 0.166260	-2.893677E-04
 0.151276	-3.535767E-04
 0.136292	-4.136047E-04
 0.121307	-4.626770E-04
 0.106293	-4.916382E-04
 0.091309	-4.938965E-04
 0.076294	-4.679565E-04
 0.061310	-4.231873E-04
 0.046310	-3.767090E-04
 0.031311	-3.372803E-04
 0.016312	-3.058167E-04
 0.001312	-2.807312E-04
 -0.013690	-2.603455E-04
 -0.028683	-2.436523E-04
 -0.043683	-2.300415E-04
 -0.058624	-2.188721E-04
 -0.073639	-2.095947E-04
 -0.088623	-2.018738E-04
 -0.103638	-1.953735E-04
 -0.118622	-1.898804E-04
 -0.133636	-1.851196E-04
 -0.148621	-1.810303E-04
 -0.163605	-1.774902E-04
 -0.178589	-1.744385E-04
 -0.193604	-1.717834E-04
 -0.208588	-1.694641E-04
 -0.223602	-1.675110E-04
 -0.238586	-1.658630E-04
 -0.253571	-1.644592E-04
 -0.268555	-1.632996E-04
 -0.283569	-1.623535E-04
 -0.298126	-1.616516E-04
 -0.284637	-3.537903E-05
 -0.269653	-2.679749E-05
 -0.254639	-2.428894E-05
 -0.239685	-2.264099E-05
 -0.224701	-2.147217E-05
 -0.209717	-2.056274E-05
 -0.194733	-1.901855E-05
 -0.179718	-1.930542E-05
 -0.164734	-1.882019E-05
 -0.149750	-1.843262E-05
 -0.134796	-1.812744E-05
 -0.119812	-1.784973E-05
 -0.104828	-1.756897E-05
 -0.089844	-1.723633E-05
 -0.074890	-1.688843E-05
 -0.059875	-1.636658E-05
 -0.044989	-1.566467E-05
 -0.030011	-1.460876E-05
 -0.015027	-1.302490E-05
 -0.000043	-1.069336E-05

 Potential	  Scan 5   
 0.014944	-7.604980E-06
 0.029916	-3.069458E-06
 0.044910	3.705750E-06
 0.059937	1.389771E-05
 0.074921	2.969666E-05
 0.089905	5.380249E-05
 0.104889	8.868408E-05
 0.119843	1.357422E-04
 0.134827	1.947937E-04
 0.149811	2.635193E-04
 0.164795	3.376770E-04
 0.179779	4.112244E-04
 0.194733	4.774475E-04
 0.209717	5.279541E-04
 0.224701	5.548096E-04
 0.239685	5.532837E-04
 0.254669	5.255127E-04
 0.269653	4.833069E-04
 0.284607	4.384460E-04
 0.299591	3.986206E-04
 0.314575	3.654480E-04
 0.329559	3.382263E-04
 0.344513	3.157959E-04
 0.359497	2.969055E-04
 0.374481	2.808533E-04
 0.389465	2.670288E-04
 0.404419	2.549133E-04
 0.419403	2.441101E-04
 0.434357	2.343140E-04
 0.449371	2.251587E-04
 0.464325	2.165527E-04
 0.479309	2.082825E-04
 0.494293	2.003479E-04
 0.497101	1.703186E-04
 0.482117	1.412354E-04
 0.467102	1.273499E-04
 0.452118	1.167297E-04
 0.437103	1.075745E-04
 0.422119	9.915161E-05
 0.407104	9.106445E-05
 0.392090	8.303833E-05
 0.377106	7.485962E-05
 0.362091	6.628418E-05
 0.347107	5.712891E-05
 0.332092	4.721985E-05
 0.317108	3.612061E-05
 0.302094	2.359009E-05
 0.287109	9.179688E-06
 0.272125	-7.739258E-06
 0.257111	-2.812805E-05
 0.242096	-5.245972E-05
 0.227112	-8.425903E-05
 0.212128	-1.228638E-04
 0.197113	-1.700134E-04
 0.182129	-2.251282E-04
 0.167145	-2.867432E-04
 0.152130	-3.508911E-04
 0.137146	-4.113159E-04
 0.122162	-4.612732E-04
 0.107147	-4.917297E-04
 0.092163	-4.958496E-04
 0.077179	-4.716187E-04
 0.062164	-4.275818E-04
 0.047177	-3.808289E-04
 0.032175	-3.409729E-04
 0.017172	-3.090210E-04
 0.002170	-2.835388E-04
 -0.012827	-2.629700E-04
 -0.027823	-2.461243E-04
 -0.042822	-2.323303E-04
 -0.057770	-2.209778E-04
 -0.072784	-2.116089E-04
 -0.087769	-2.037964E-04
 -0.102783	-1.972656E-04
 -0.117767	-1.916809E-04
 -0.132751	-1.868896E-04
 -0.147766	-1.827393E-04
 -0.162750	-1.791992E-04
 -0.177734	-1.761475E-04
 -0.192749	-1.734009E-04
 -0.207733	-1.710510E-04
 -0.222717	-1.690979E-04
 -0.237732	-1.673889E-04
 -0.252716	-1.660156E-04
 -0.267700	-1.647949E-04
 -0.282715	-1.638794E-04
 -0.297699	-1.631775E-04
 -0.285980	-3.894653E-05
 -0.270996	-2.842712E-05
 -0.256012	-2.581177E-05
 -0.240997	-2.415161E-05
 -0.226013	-2.294922E-05
 -0.211029	-2.196350E-05
 -0.196045	-2.033386E-05
 -0.181061	-2.069092E-05
 -0.166077	-2.024841E-05
 -0.151093	-1.983337E-05
 -0.136139	-1.947937E-05
 -0.121155	-1.917114E-05
 -0.106171	-1.891174E-05
 -0.091187	-1.862183E-05
 -0.076202	-1.823425E-05
 -0.061218	-1.774292E-05
 -0.046335	-1.705933E-05
 -0.031357	-1.602478E-05
 -0.016376	-1.450806E-05
 -0.001385	-1.217346E-05
