Date: 15-08-25
Time: 14:56:08 PM

Exp. Conditions:
Cyclic voltammetry
Start potential (V) = .0000
First vertex potential (V) = .5000
Second vertex potential (V) = -.3000
Step potential (V) = .00500
Scan rate (V/s) = .39987
Equilibration time (s) = 
Number of Data Points =  320 

 Potential	  Scan 1   
 0.002145	-3.771973E-06
 0.009714	5.990601E-06
 0.014700	6.912231E-06
 0.019699	7.723999E-06
 0.024689	8.557129E-06
 0.029684	9.423828E-06
 0.034674	1.044922E-05
 0.039667	1.161499E-05
 0.044659	1.296082E-05
 0.049652	1.455688E-05
 0.054688	1.640625E-05
 0.059662	1.859131E-05
 0.064667	2.118530E-05
 0.069672	2.416382E-05
 0.074646	2.770691E-05
 0.079651	3.182373E-05
 0.084625	3.663940E-05
 0.089630	4.219666E-05
 0.094604	4.862976E-05
 0.099609	5.590820E-05
 0.104614	6.417847E-05
 0.109589	7.351685E-05
 0.114594	8.389282E-05
 0.119568	9.533691E-05
 0.124573	1.079102E-04
 0.129578	1.214905E-04
 0.134552	1.359253E-04
 0.139557	1.513977E-04
 0.144531	1.675110E-04
 0.149506	1.842651E-04
 0.154510	2.014465E-04
 0.159515	2.187195E-04
 0.164490	2.360535E-04
 0.169495	2.530212E-04
 0.174469	2.695923E-04
 0.179474	2.852478E-04
 0.184448	2.998657E-04
 0.189453	3.131714E-04
 0.194427	3.249207E-04
 0.199432	3.346863E-04
 0.204407	3.422241E-04
 0.209412	3.475342E-04
 0.214386	3.504333E-04
 0.219391	3.510437E-04
 0.224396	3.493347E-04
 0.229370	3.455505E-04
 0.234375	3.399048E-04
 0.239349	3.328247E-04
 0.244324	3.246765E-04
 0.249329	3.156738E-04
 0.254333	3.063354E-04
 0.259308	2.968445E-04
 0.264313	2.874756E-04
 0.269287	2.783813E-04
 0.274292	2.696838E-04
 0.279297	2.614136E-04
 0.284271	2.536011E-04
 0.289246	2.462463E-04
 0.294250	2.393188E-04
 0.299225	2.329102E-04
 0.304230	2.268982E-04
 0.309235	2.212830E-04
 0.314209	2.160339E-04
 0.319214	2.110901E-04
 0.324188	2.064514E-04
 0.329193	2.021179E-04
 0.334167	1.980286E-04
 0.339172	1.941833E-04
 0.344147	1.905212E-04
 0.349152	1.870728E-04
 0.354126	1.837769E-04
 0.359131	1.806641E-04
 0.364105	1.777039E-04
 0.369110	1.748962E-04
 0.374084	1.722717E-04
 0.379089	1.696167E-04
 0.384064	1.671143E-04
 0.389069	1.647034E-04
 0.394043	1.624146E-04
 0.399048	1.601868E-04
 0.404022	1.579895E-04
 0.409027	1.558533E-04
 0.414001	1.538086E-04
 0.419006	1.517944E-04
 0.423981	1.498413E-04
 0.428986	1.479492E-04
 0.433960	1.460571E-04
 0.438965	1.442261E-04
 0.443970	1.423645E-04
 0.448944	1.405945E-04
 0.453918	1.388245E-04
 0.458923	1.370544E-04
 0.463898	1.353455E-04
 0.468903	1.336365E-04
 0.473907	1.319885E-04
 0.478882	1.303101E-04
 0.483887	1.286621E-04
 0.488861	1.270447E-04
 0.493835	1.254578E-04
 0.498840	1.239014E-04
 0.500488	1.154480E-04
 0.495056	1.048279E-04
 0.490051	1.002502E-04
 0.485046	9.686279E-05
 0.480042	9.402466E-05
 0.475067	9.158325E-05
 0.470032	8.935547E-05
 0.465027	8.728027E-05
 0.460052	8.535767E-05
 0.455017	8.352661E-05
 0.450043	8.178711E-05
 0.445007	8.007813E-05
 0.440002	7.843018E-05
 0.434998	7.681274E-05
 0.429993	7.522583E-05
 0.424988	7.369995E-05
 0.420013	7.214355E-05
 0.414978	7.064819E-05
 0.409973	6.915283E-05
 0.404968	6.762695E-05
 0.399963	6.613159E-05
 0.394989	6.460571E-05
 0.389984	6.307983E-05
 0.384979	6.152344E-05
 0.379974	5.999756E-05
 0.374969	5.841064E-05
 0.369965	5.682373E-05
 0.364960	5.517578E-05
 0.359955	5.352783E-05
 0.354950	5.181885E-05
 0.349945	5.007935E-05
 0.344940	4.834900E-05
 0.339935	4.651489E-05
 0.334930	4.462280E-05
 0.329926	4.268188E-05
 0.324921	4.064026E-05
 0.319916	3.852539E-05
 0.314911	3.509521E-05
 0.309906	3.387451E-05
 0.304901	3.145752E-05
 0.299896	2.893677E-05
 0.294891	2.624207E-05
 0.289886	2.347412E-05
 0.284882	2.045593E-05
 0.279877	1.719971E-05
 0.274872	1.376343E-05
 0.269867	1.000366E-05
 0.264893	5.938721E-06
 0.259888	1.569214E-06
 0.254883	-3.212280E-06
 0.249878	-8.450317E-06
 0.244873	-1.419983E-05
 0.239868	-2.051392E-05
 0.234863	-2.742004E-05
 0.229858	-3.504639E-05
 0.224854	-4.336243E-05
 0.219849	-5.252075E-05
 0.214844	-6.243896E-05
 0.209839	-7.305908E-05
 0.204834	-8.462524E-05
 0.199829	-9.695435E-05
 0.194855	-1.100159E-04
 0.189850	-1.239014E-04
 0.184814	-1.380920E-04
 0.179840	-1.529541E-04
 0.174835	-1.680603E-04
 0.169830	-1.831665E-04
 0.164825	-1.982422E-04
 0.159821	-2.129211E-04
 0.154816	-2.270203E-04
 0.149811	-2.402954E-04
 0.144806	-2.522583E-04
 0.139832	-2.629395E-04
 0.134796	-2.719421E-04
 0.129822	-2.789917E-04
 0.124817	-2.839966E-04
 0.119781	-2.867737E-04
 0.114807	-2.873230E-04
 0.109802	-2.856445E-04
 0.104797	-2.817993E-04
 0.099792	-2.758179E-04
 0.094788	-2.681580E-04
 0.089813	-2.592773E-04
 0.084778	-2.498169E-04
 0.079803	-2.401733E-04
 0.074799	-2.304688E-04
 0.069794	-2.211609E-04
 0.064789	-2.122498E-04
 0.059753	-2.038574E-04
 0.054779	-1.959534E-04
 0.049774	-1.885986E-04
 0.044748	-1.818237E-04
 0.039740	-1.754456E-04
 0.034741	-1.695251E-04
 0.029736	-1.641235E-04
 0.024731	-1.590576E-04
 0.019727	-1.543274E-04
 0.014725	-1.499939E-04
 0.009717	-1.458435E-04
 0.004718	-1.420288E-04
 -0.000287	-1.384583E-04
 -0.005283	-1.349792E-04
 -0.010297	-1.319580E-04
 -0.015302	-1.289978E-04
 -0.020303	-1.262512E-04
 -0.025305	-1.237183E-04
 -0.030310	-1.212769E-04
 -0.035318	-1.189880E-04
 -0.040317	-1.167908E-04
 -0.045325	-1.147766E-04
 -0.050262	-1.128540E-04
 -0.055267	-1.110840E-04
 -0.060272	-1.093750E-04
 -0.065277	-1.077881E-04
 -0.070282	-1.062317E-04
 -0.075287	-1.048279E-04
 -0.080292	-1.034851E-04
 -0.085297	-1.021423E-04
 -0.090302	-1.008911E-04
 -0.095276	-9.970093E-05
 -0.100281	-9.857178E-05
 -0.105286	-9.753418E-05
 -0.110291	-9.649658E-05
 -0.115295	-9.555054E-05
 -0.120300	-9.460449E-05
 -0.125305	-9.368896E-05
 -0.130310	-9.286499E-05
 -0.135315	-9.204102E-05
 -0.140320	-9.130859E-05
 -0.145325	-9.054565E-05
 -0.150299	-8.978271E-05
 -0.155334	-8.914185E-05
 -0.160309	-8.843994E-05
 -0.165314	-8.782959E-05
 -0.170319	-8.721924E-05
 -0.175323	-8.663940E-05
 -0.180328	-8.605957E-05
 -0.185333	-8.557129E-05
 -0.190338	-8.499146E-05
 -0.195343	-8.450317E-05
 -0.200348	-8.404541E-05
 -0.205322	-8.361816E-05
 -0.210327	-8.316040E-05
 -0.215332	-8.276367E-05
 -0.220337	-8.230591E-05
 -0.225342	-8.197021E-05
 -0.230347	-8.157349E-05
 -0.235352	-8.126831E-05
 -0.240356	-8.090210E-05
 -0.245361	-8.056641E-05
 -0.250366	-8.029175E-05
 -0.255371	-7.995605E-05
 -0.260345	-7.971191E-05
 -0.265350	-7.943726E-05
 -0.270355	-7.922363E-05
 -0.275360	-7.901001E-05
 -0.280365	-7.882690E-05
 -0.285370	-7.858276E-05
 -0.290344	-7.843018E-05
 -0.295380	-7.824707E-05
 -0.296753	-6.033325E-05
 -0.291748	-2.593079E-05
 -0.286743	-2.392273E-05
 -0.281769	-2.302551E-05
 -0.276764	-2.233887E-05
 -0.271790	-2.184448E-05
 -0.266785	-2.137451E-05
 -0.261780	-2.101440E-05
 -0.256805	-2.059021E-05
 -0.251801	-2.027283E-05
 -0.246796	-1.997681E-05
 -0.241821	-1.971130E-05
 -0.236816	-1.942444E-05
 -0.231812	-1.914063E-05
 -0.226837	-1.893311E-05
 -0.221832	-1.870728E-05
 -0.216858	-1.852417E-05
 -0.211853	-1.832275E-05
 -0.206848	-1.810608E-05
 -0.201874	-1.799622E-05
 -0.196869	-1.772461E-05
 -0.191895	-1.760254E-05
 -0.186890	-1.737366E-05
 -0.181885	-1.726685E-05
 -0.176910	-1.713257E-05
 -0.171906	-1.703186E-05
 -0.166901	-1.689148E-05
 -0.161926	-1.672974E-05
 -0.156952	-1.663818E-05
 -0.151947	-1.651001E-05
 -0.146973	-1.633911E-05
 -0.141968	-1.625671E-05
 -0.136963	-1.619263E-05
 -0.131989	-1.605835E-05
 -0.126984	-1.594238E-05
 -0.122009	-1.588135E-05
 -0.117004	-1.575623E-05
 -0.112000	-1.565552E-05
 -0.107025	-1.555176E-05
 -0.102020	-1.548157E-05
 -0.097046	-1.537781E-05
 -0.092072	-1.527710E-05
 -0.087067	-1.515808E-05
 -0.082062	-1.508484E-05
 -0.077087	-1.497498E-05
 -0.072083	-1.487732E-05
 -0.067108	-1.472778E-05
 -0.062103	-1.457825E-05
 -0.057098	-1.449280E-05
 -0.052124	-1.432800E-05
 -0.047202	-1.416321E-05
 -0.042206	-1.401062E-05
 -0.037216	-1.381226E-05
 -0.032224	-1.360779E-05
 -0.027231	-1.332703E-05
 -0.022235	-1.302795E-05
 -0.017242	-1.272583E-05
 -0.012253	-1.241760E-05
 -0.007260	-1.199951E-05
 -0.002264	-1.159363E-05

 Potential	  Scan 2   
 0.002725	-1.108093E-05
 0.007733	-1.038513E-05
 0.012708	-9.915161E-06
 0.017700	-9.207153E-06
 0.022699	-8.389282E-06
 0.027689	-7.446289E-06
 0.032681	-6.402588E-06
 0.037674	-5.203247E-06
 0.042661	-3.841553E-06
 0.047653	-2.209167E-06
 0.052673	-2.877808E-07
 0.057678	1.869202E-06
 0.062653	4.435120E-06
 0.067657	7.437134E-06
 0.072662	1.097717E-05
 0.077637	1.504211E-05
 0.082642	1.983032E-05
 0.087616	2.530823E-05
 0.092621	3.158264E-05
 0.097595	3.880615E-05
 0.102600	4.700623E-05
 0.107605	5.609131E-05
 0.112579	6.637573E-05
 0.117584	7.763672E-05
 0.122559	9.002686E-05
 0.127563	1.034241E-04
 0.132538	1.178589E-04
 0.137543	1.330872E-04
 0.142517	1.490784E-04
 0.147522	1.657410E-04
 0.152496	1.828918E-04
 0.157501	2.002258E-04
 0.162476	2.175903E-04
 0.167480	2.347412E-04
 0.172455	2.514038E-04
 0.177460	2.673340E-04
 0.182434	2.822266E-04
 0.187439	2.958069E-04
 0.192444	3.078918E-04
 0.197418	3.180847E-04
 0.202423	3.263855E-04
 0.207397	3.322144E-04
 0.212402	3.357849E-04
 0.217377	3.369446E-04
 0.222382	3.357849E-04
 0.227356	3.325806E-04
 0.232361	3.273926E-04
 0.237335	3.206482E-04
 0.242340	3.127441E-04
 0.247314	3.039856E-04
 0.252319	2.947693E-04
 0.257294	2.853394E-04
 0.262299	2.760315E-04
 0.267273	2.668762E-04
 0.272278	2.580872E-04
 0.277283	2.497559E-04
 0.282257	2.418213E-04
 0.287262	2.343445E-04
 0.292236	2.273865E-04
 0.297241	2.208557E-04
 0.302216	2.147217E-04
 0.307220	2.090149E-04
 0.312195	2.036438E-04
 0.317200	1.986389E-04
 0.322174	1.939087E-04
 0.327179	1.894836E-04
 0.332153	1.852722E-04
 0.337158	1.813660E-04
 0.342133	1.776428E-04
 0.347137	1.741638E-04
 0.352112	1.707764E-04
 0.357117	1.676331E-04
 0.362091	1.646118E-04
 0.367096	1.617432E-04
 0.372070	1.589661E-04
 0.377075	1.563721E-04
 0.382080	1.538391E-04
 0.387054	1.514587E-04
 0.392029	1.491089E-04
 0.397034	1.468811E-04
 0.402008	1.447144E-04
 0.407013	1.426392E-04
 0.412018	1.405945E-04
 0.416992	1.386719E-04
 0.421997	1.367493E-04
 0.426971	1.349182E-04
 0.431946	1.330566E-04
 0.436951	1.312866E-04
 0.441956	1.295471E-04
 0.446930	1.278381E-04
 0.451935	1.261902E-04
 0.456909	1.245422E-04
 0.461914	1.228943E-04
 0.466888	1.213379E-04
 0.471893	1.197815E-04
 0.476868	1.182251E-04
 0.481873	1.167297E-04
 0.486847	1.152649E-04
 0.491852	1.138306E-04
 0.496826	1.124268E-04
 0.498077	1.041870E-04
 0.493042	9.381104E-05
 0.488068	8.941650E-05
 0.483063	8.615112E-05
 0.478027	8.346558E-05
 0.473053	8.111572E-05
 0.468048	7.897949E-05
 0.463013	7.705688E-05
 0.458038	7.519531E-05
 0.453003	7.345581E-05
 0.447998	7.177734E-05
 0.442993	7.019043E-05
 0.437988	6.860352E-05
 0.432983	6.707764E-05
 0.427979	6.558228E-05
 0.422974	6.408691E-05
 0.417969	6.262207E-05
 0.412994	6.115723E-05
 0.407959	5.972290E-05
 0.402985	5.828857E-05
 0.397980	5.682373E-05
 0.392975	5.538940E-05
 0.387970	5.392456E-05
 0.382965	5.242920E-05
 0.377960	5.093384E-05
 0.372955	4.948730E-05
 0.367950	4.791870E-05
 0.362946	4.634094E-05
 0.357941	4.472046E-05
 0.352936	4.306946E-05
 0.347931	4.136963E-05
 0.342926	3.854370E-05
 0.337921	3.763428E-05
 0.332916	3.580322E-05
 0.327911	3.385315E-05
 0.322906	3.184204E-05
 0.317902	2.975464E-05
 0.312927	2.757568E-05
 0.307892	2.526245E-05
 0.302887	2.287598E-05
 0.297882	2.036133E-05
 0.292877	1.766663E-05
 0.287903	1.483154E-05
 0.282898	1.179810E-05
 0.277893	8.554077E-06
 0.272888	5.093384E-06
 0.267883	1.290588E-06
 0.262878	-2.780762E-06
 0.257874	-7.299805E-06
 0.252869	-1.215820E-05
 0.247864	-1.751709E-05
 0.242859	-2.335205E-05
 0.237854	-2.976685E-05
 0.232880	-3.681030E-05
 0.227844	-4.459534E-05
 0.222839	-5.300903E-05
 0.217865	-6.234741E-05
 0.212830	-7.238770E-05
 0.207855	-8.325195E-05
 0.202850	-9.497070E-05
 0.197845	-1.074524E-04
 0.192841	-1.207581E-04
 0.187836	-1.344910E-04
 0.182831	-1.489258E-04
 0.177826	-1.637573E-04
 0.172821	-1.787415E-04
 0.167816	-1.938171E-04
 0.162811	-2.087402E-04
 0.157806	-2.232056E-04
 0.152832	-2.369995E-04
 0.147827	-2.498779E-04
 0.142822	-2.613831E-04
 0.137817	-2.714844E-04
 0.132813	-2.799072E-04
 0.127808	-2.863159E-04
 0.122803	-2.907104E-04
 0.117798	-2.927856E-04
 0.112793	-2.926025E-04
 0.107788	-2.902527E-04
 0.102814	-2.857056E-04
 0.097809	-2.792358E-04
 0.092804	-2.711182E-04
 0.087799	-2.621155E-04
 0.082794	-2.525330E-04
 0.077789	-2.428894E-04
 0.072784	-2.333679E-04
 0.067780	-2.241821E-04
 0.062775	-2.154236E-04
 0.057770	-2.071838E-04
 0.052765	-1.994934E-04
 0.047757	-1.922913E-04
 0.042755	-1.856384E-04
 0.037753	-1.794739E-04
 0.032748	-1.737366E-04
 0.027744	-1.684265E-04
 0.022742	-1.634216E-04
 0.017740	-1.587830E-04
 0.012735	-1.545105E-04
 0.007745	-1.504822E-04
 0.002722	-1.468201E-04
 -0.002277	-1.432190E-04
 -0.007281	-1.400146E-04
 -0.012283	-1.368408E-04
 -0.017285	-1.339417E-04
 -0.022290	-1.311951E-04
 -0.027298	-1.286316E-04
 -0.032303	-1.262512E-04
 -0.037308	-1.239929E-04
 -0.042310	-1.218872E-04
 -0.047311	-1.198730E-04
 -0.052277	-1.179504E-04
 -0.057251	-1.161804E-04
 -0.062256	-1.144714E-04
 -0.067261	-1.129761E-04
 -0.072266	-1.113892E-04
 -0.077271	-1.099243E-04
 -0.082275	-1.085510E-04
 -0.087280	-1.072083E-04
 -0.092285	-1.060181E-04
 -0.097260	-1.048279E-04
 -0.102295	-1.036987E-04
 -0.107300	-1.026001E-04
 -0.112274	-1.015930E-04
 -0.117279	-1.005859E-04
 -0.122284	-9.970093E-05
 -0.127289	-9.872437E-05
 -0.132294	-9.786987E-05
 -0.137299	-9.704590E-05
 -0.142303	-9.622192E-05
 -0.147308	-9.548950E-05
 -0.152283	-9.475708E-05
 -0.157288	-9.405518E-05
 -0.162323	-9.338379E-05
 -0.167297	-9.274292E-05
 -0.172302	-9.210205E-05
 -0.177307	-9.149170E-05
 -0.182312	-9.094238E-05
 -0.187317	-9.036255E-05
 -0.192322	-8.996582E-05
 -0.197327	-8.932495E-05
 -0.202332	-8.889771E-05
 -0.207336	-8.840942E-05
 -0.212311	-8.798218E-05
 -0.217316	-8.752441E-05
 -0.222321	-8.712769E-05
 -0.227325	-8.676147E-05
 -0.232330	-8.636475E-05
 -0.237335	-8.599854E-05
 -0.242340	-8.560181E-05
 -0.247345	-8.532715E-05
 -0.252350	-8.499146E-05
 -0.257355	-8.465576E-05
 -0.262329	-8.441162E-05
 -0.267334	-8.413696E-05
 -0.272339	-8.389282E-05
 -0.277344	-8.367920E-05
 -0.282349	-8.340454E-05
 -0.287354	-8.319092E-05
 -0.292358	-8.297729E-05
 -0.297363	-8.285522E-05
 -0.295776	-4.136353E-05
 -0.290802	-2.965088E-05
 -0.285797	-2.819824E-05
 -0.280792	-2.741699E-05
 -0.275787	-2.676697E-05
 -0.270813	-2.628174E-05
 -0.265808	-2.582092E-05
 -0.260834	-2.536316E-05
 -0.255829	-2.502441E-05
 -0.250824	-2.474670E-05
 -0.245850	-2.443237E-05
 -0.240845	-2.411804E-05
 -0.235840	-2.386780E-05
 -0.230865	-2.360535E-05
 -0.225861	-2.336426E-05
 -0.220856	-2.310791E-05
 -0.215881	-2.287903E-05
 -0.210907	-2.268372E-05
 -0.205902	-2.247925E-05
 -0.200897	-2.229614E-05
 -0.195923	-2.208557E-05
 -0.190918	-2.194214E-05
 -0.185913	-2.178345E-05
 -0.180939	-2.157898E-05
 -0.175934	-2.144775E-05
 -0.170959	-2.129517E-05
 -0.165955	-2.112732E-05
 -0.160980	-2.097168E-05
 -0.155975	-2.085266E-05
 -0.150970	-2.071533E-05
 -0.145996	-2.060242E-05
 -0.140991	-2.045593E-05
 -0.136017	-2.033386E-05
 -0.131012	-2.022705E-05
 -0.126007	-2.007446E-05
 -0.121033	-1.998291E-05
 -0.116028	-1.987915E-05
 -0.111053	-1.977539E-05
 -0.106049	-1.966553E-05
 -0.101074	-1.956177E-05
 -0.096069	-1.941223E-05
 -0.091095	-1.931763E-05
 -0.086090	-1.918640E-05
 -0.081116	-1.906433E-05
 -0.076111	-1.894836E-05
 -0.071106	-1.883240E-05
 -0.066132	-1.874695E-05
 -0.061127	-1.857910E-05
 -0.056152	-1.842346E-05
 -0.051147	-1.823425E-05
 -0.046237	-1.806335E-05
 -0.041245	-1.789551E-05
 -0.036252	-1.763611E-05
 -0.031256	-1.744080E-05
 -0.026266	-1.720581E-05
 -0.021274	-1.681519E-05
 -0.016281	-1.650085E-05
 -0.011292	-1.613770E-05
 -0.006296	-1.571350E-05
 -0.001306	-1.539307E-05

 Potential	  Scan 3   
 0.003687	-1.476135E-05
 0.008682	-1.412659E-05
 0.013669	-1.354065E-05
 0.018665	-1.273193E-05
 0.023657	-1.193237E-05
 0.028647	-1.097107E-05
 0.033643	-9.823608E-06
 0.038632	-8.587646E-06
 0.043625	-7.113647E-06
 0.048618	-5.429077E-06
 0.053650	-3.484802E-06
 0.058624	-1.191406E-06
 0.063629	1.480713E-06
 0.068634	4.650879E-06
 0.073608	8.331299E-06
 0.078613	1.257935E-05
 0.083588	1.748657E-05
 0.088562	2.322388E-05
 0.093567	2.973022E-05
 0.098572	3.721008E-05
 0.103546	4.559326E-05
 0.108551	5.505371E-05
 0.113525	6.552124E-05
 0.118530	7.708740E-05
 0.123505	8.972168E-05
 0.128510	1.034241E-04
 0.133514	1.180115E-04
 0.138489	1.334534E-04
 0.143494	1.496887E-04
 0.148468	1.664734E-04
 0.153473	1.836853E-04
 0.158447	2.010498E-04
 0.163452	2.183533E-04
 0.168427	2.354431E-04
 0.173431	2.519226E-04
 0.178406	2.676086E-04
 0.183411	2.821960E-04
 0.188385	2.954407E-04
 0.193390	3.070374E-04
 0.198364	3.167419E-04
 0.203369	3.244934E-04
 0.208344	3.297424E-04
 0.213348	3.327026E-04
 0.218323	3.333435E-04
 0.223328	3.316345E-04
 0.228302	3.279114E-04
 0.233307	3.222656E-04
 0.238281	3.152466E-04
 0.243286	3.070984E-04
 0.248291	2.982483E-04
 0.253265	2.889709E-04
 0.258270	2.795715E-04
 0.263245	2.702637E-04
 0.268219	2.612305E-04
 0.273224	2.525330E-04
 0.278229	2.442627E-04
 0.283203	2.364502E-04
 0.288208	2.291260E-04
 0.293182	2.222595E-04
 0.298157	2.158203E-04
 0.303162	2.097778E-04
 0.308136	2.041321E-04
 0.313141	1.988525E-04
 0.318146	1.939392E-04
 0.323120	1.892395E-04
 0.328125	1.849060E-04
 0.333130	1.808167E-04
 0.338104	1.769104E-04
 0.343109	1.732178E-04
 0.348083	1.697693E-04
 0.353058	1.664429E-04
 0.358063	1.633301E-04
 0.363037	1.603394E-04
 0.368042	1.574707E-04
 0.373016	1.547852E-04
 0.378021	1.521606E-04
 0.383026	1.496582E-04
 0.388000	1.472778E-04
 0.393005	1.449585E-04
 0.397980	1.427612E-04
 0.402985	1.406250E-04
 0.407959	1.385803E-04
 0.412964	1.365662E-04
 0.417938	1.346130E-04
 0.422943	1.327515E-04
 0.427917	1.308899E-04
 0.432892	1.290588E-04
 0.437897	1.272888E-04
 0.442902	1.255493E-04
 0.447876	1.239014E-04
 0.452881	1.222229E-04
 0.457855	1.206055E-04
 0.462860	1.190186E-04
 0.467834	1.174622E-04
 0.472839	1.159058E-04
 0.477814	1.143799E-04
 0.482819	1.128845E-04
 0.487793	1.114807E-04
 0.492798	1.100464E-04
 0.497803	1.086731E-04
 0.499023	1.005249E-04
 0.494019	9.033203E-05
 0.489014	8.599854E-05
 0.484009	8.279419E-05
 0.479004	8.016968E-05
 0.473999	7.788086E-05
 0.468994	7.580566E-05
 0.463989	7.388306E-05
 0.458984	7.205200E-05
 0.453979	7.034302E-05
 0.448975	6.872559E-05
 0.443970	6.713867E-05
 0.438965	6.561279E-05
 0.433960	6.408691E-05
 0.428955	6.265259E-05
 0.423950	6.118774E-05
 0.418945	5.975342E-05
 0.413940	5.831909E-05
 0.408936	5.691528E-05
 0.403931	5.545044E-05
 0.398926	5.407715E-05
 0.393921	5.264282E-05
 0.388916	5.120850E-05
 0.383911	4.977417E-05
 0.378906	4.834290E-05
 0.373901	4.686279E-05
 0.368896	4.532471E-05
 0.363892	4.377136E-05
 0.358887	4.218140E-05
 0.353882	3.956299E-05
 0.348877	3.870239E-05
 0.343872	3.703308E-05
 0.338867	3.521118E-05
 0.333862	3.338623E-05
 0.328857	3.146057E-05
 0.323853	2.949524E-05
 0.318878	2.743835E-05
 0.313873	2.528076E-05
 0.308838	2.304382E-05
 0.303864	2.068787E-05
 0.298828	1.819153E-05
 0.293854	1.557312E-05
 0.288818	1.274719E-05
 0.283844	9.790039E-06
 0.278839	6.619263E-06
 0.273834	3.196411E-06
 0.268829	-4.589844E-07
 0.263824	-4.489136E-06
 0.258820	-8.850098E-06
 0.253815	-1.361389E-05
 0.248810	-1.880798E-05
 0.243805	-2.453308E-05
 0.238831	-3.082581E-05
 0.233826	-3.771057E-05
 0.228821	-4.530029E-05
 0.223816	-5.352783E-05
 0.218811	-6.268311E-05
 0.213806	-7.250977E-05
 0.208801	-8.316040E-05
 0.203796	-9.463501E-05
 0.198792	-1.069031E-04
 0.193787	-1.199036E-04
 0.188782	-1.335754E-04
 0.183777	-1.478271E-04
 0.178772	-1.625366E-04
 0.173767	-1.774292E-04
 0.168793	-1.925354E-04
 0.163788	-2.074890E-04
 0.158783	-2.220459E-04
 0.153778	-2.360229E-04
 0.148773	-2.490540E-04
 0.143768	-2.609558E-04
 0.138763	-2.713928E-04
 0.133759	-2.801819E-04
 0.128754	-2.870483E-04
 0.123749	-2.918396E-04
 0.118744	-2.944641E-04
 0.113770	-2.948608E-04
 0.108765	-2.930298E-04
 0.103760	-2.889709E-04
 0.098755	-2.829285E-04
 0.093750	-2.752075E-04
 0.088745	-2.663574E-04
 0.083740	-2.568665E-04
 0.078735	-2.473145E-04
 0.073761	-2.377014E-04
 0.068756	-2.284241E-04
 0.063751	-2.195435E-04
 0.058716	-2.111816E-04
 0.053741	-2.033691E-04
 0.048715	-1.960754E-04
 0.043713	-1.893005E-04
 0.038708	-1.830444E-04
 0.033707	-1.771545E-04
 0.028699	-1.717834E-04
 0.023697	-1.667480E-04
 0.018689	-1.620178E-04
 0.013687	-1.576538E-04
 0.008682	-1.535645E-04
 0.003680	-1.499023E-04
 -0.001321	-1.461487E-04
 -0.006323	-1.429138E-04
 -0.011328	-1.397095E-04
 -0.016330	-1.367493E-04
 -0.021335	-1.339722E-04
 -0.026337	-1.313171E-04
 -0.031342	-1.289063E-04
 -0.036346	-1.265869E-04
 -0.041345	-1.244812E-04
 -0.046347	-1.224976E-04
 -0.051300	-1.205139E-04
 -0.056305	-1.187439E-04
 -0.061310	-1.170044E-04
 -0.066315	-1.153259E-04
 -0.071320	-1.138000E-04
 -0.076324	-1.123352E-04
 -0.081299	-1.109924E-04
 -0.086304	-1.096497E-04
 -0.091309	-1.083984E-04
 -0.096313	-1.072083E-04
 -0.101318	-1.060181E-04
 -0.106323	-1.049194E-04
 -0.111328	-1.039124E-04
 -0.116333	-1.029053E-04
 -0.121338	-1.019287E-04
 -0.126312	-1.009827E-04
 -0.131317	-1.001587E-04
 -0.136322	-9.927368E-05
 -0.141327	-9.844971E-05
 -0.146332	-9.765625E-05
 -0.151337	-9.695435E-05
 -0.156342	-9.625244E-05
 -0.161346	-9.552002E-05
 -0.166321	-9.494019E-05
 -0.171326	-9.429932E-05
 -0.176331	-9.368896E-05
 -0.181335	-9.307861E-05
 -0.186340	-9.252930E-05
 -0.191345	-9.201050E-05
 -0.196350	-9.146118E-05
 -0.201355	-9.097290E-05
 -0.206329	-9.051514E-05
 -0.211334	-9.005737E-05
 -0.216370	-8.963013E-05
 -0.221344	-8.920288E-05
 -0.226349	-8.883667E-05
 -0.231354	-8.837891E-05
 -0.236359	-8.807373E-05
 -0.241364	-8.767700E-05
 -0.246368	-8.737183E-05
 -0.251373	-8.703613E-05
 -0.256378	-8.670044E-05
 -0.261353	-8.645630E-05
 -0.266357	-8.615112E-05
 -0.271362	-8.587646E-05
 -0.276367	-8.563232E-05
 -0.281372	-8.532715E-05
 -0.286377	-8.517456E-05
 -0.291382	-8.499146E-05
 -0.296387	-8.477783E-05
 -0.296631	-5.441284E-05
 -0.291626	-3.206177E-05
 -0.286652	-3.033752E-05
 -0.281647	-2.945557E-05
 -0.276642	-2.878418E-05
 -0.271667	-2.830505E-05
 -0.266663	-2.781982E-05
 -0.261658	-2.736816E-05
 -0.256683	-2.700806E-05
 -0.251678	-2.661438E-05
 -0.246704	-2.635498E-05
 -0.241699	-2.602844E-05
 -0.236694	-2.572632E-05
 -0.231689	-2.542114E-05
 -0.226715	-2.522583E-05
 -0.221710	-2.500000E-05
 -0.216736	-2.478638E-05
 -0.211731	-2.457275E-05
 -0.206726	-2.434998E-05
 -0.201752	-2.419128E-05
 -0.196747	-2.400818E-05
 -0.191772	-2.376099E-05
 -0.186768	-2.361145E-05
 -0.181763	-2.348938E-05
 -0.176788	-2.329102E-05
 -0.171783	-2.313843E-05
 -0.166809	-2.295227E-05
 -0.161804	-2.284546E-05
 -0.156799	-2.265930E-05
 -0.151825	-2.256165E-05
 -0.146820	-2.238770E-05
 -0.141846	-2.227478E-05
 -0.136841	-2.219238E-05
 -0.131866	-2.204895E-05
 -0.126862	-2.189636E-05
 -0.121887	-2.179260E-05
 -0.116882	-2.168579E-05
 -0.111877	-2.157898E-05
 -0.106903	-2.145081E-05
 -0.101898	-2.130127E-05
 -0.096924	-2.118835E-05
 -0.091919	-2.104797E-05
 -0.086945	-2.094727E-05
 -0.081940	-2.082825E-05
 -0.076965	-2.070923E-05
 -0.071960	-2.059021E-05
 -0.066986	-2.047424E-05
 -0.061951	-2.033691E-05
 -0.056976	-2.016602E-05
 -0.052002	-1.993713E-05
 -0.047073	-1.979675E-05
 -0.042081	-1.962280E-05
 -0.037085	-1.935120E-05
 -0.032092	-1.916199E-05
 -0.027100	-1.887512E-05
 -0.022110	-1.862183E-05
 -0.017114	-1.824341E-05
 -0.012122	-1.788635E-05
 -0.007132	-1.745911E-05
 -0.002136	-1.708984E-05

 Potential	  Scan 4   
 0.002856	-1.647339E-05
 0.007864	-1.579285E-05
 0.012842	-1.522827E-05
 0.017831	-1.453857E-05
 0.022827	-1.367188E-05
 0.027817	-1.269836E-05
 0.032816	-1.162720E-05
 0.037802	-1.041260E-05
 0.042798	-8.938599E-06
 0.047791	-7.272339E-06
 0.052826	-5.337524E-06
 0.057800	-3.140869E-06
 0.062805	-4.357910E-07
 0.067780	2.605896E-06
 0.072784	6.173706E-06
 0.077789	1.041260E-05
 0.082764	1.525269E-05
 0.087738	2.084045E-05
 0.092743	2.725830E-05
 0.097748	3.456726E-05
 0.102722	4.284363E-05
 0.107727	5.215454E-05
 0.112701	6.246948E-05
 0.117706	7.394409E-05
 0.122681	8.645630E-05
 0.127686	1.000061E-04
 0.132690	1.145325E-04
 0.137665	1.298523E-04
 0.142670	1.459351E-04
 0.147644	1.627197E-04
 0.152649	1.798706E-04
 0.157623	1.972351E-04
 0.162628	2.146301E-04
 0.167603	2.317200E-04
 0.172577	2.482910E-04
 0.177582	2.640686E-04
 0.182556	2.787781E-04
 0.187561	2.922363E-04
 0.192566	3.040161E-04
 0.197540	3.140564E-04
 0.202545	3.220215E-04
 0.207520	3.276062E-04
 0.212524	3.308716E-04
 0.217529	3.317261E-04
 0.222504	3.303833E-04
 0.227478	3.268738E-04
 0.232483	3.215027E-04
 0.237457	3.146973E-04
 0.242462	3.067017E-04
 0.247467	2.978516E-04
 0.252441	2.886353E-04
 0.257446	2.792053E-04
 0.262421	2.698669E-04
 0.267426	2.608032E-04
 0.272400	2.520142E-04
 0.277405	2.437439E-04
 0.282379	2.358398E-04
 0.287384	2.284546E-04
 0.292358	2.215271E-04
 0.297363	2.149963E-04
 0.302338	2.089233E-04
 0.307343	2.032166E-04
 0.312347	1.979065E-04
 0.317322	1.929321E-04
 0.322327	1.882324E-04
 0.327301	1.838379E-04
 0.332306	1.796570E-04
 0.337280	1.757507E-04
 0.342285	1.720581E-04
 0.347260	1.685486E-04
 0.352264	1.651917E-04
 0.357239	1.620483E-04
 0.362244	1.590271E-04
 0.367218	1.561584E-04
 0.372223	1.534424E-04
 0.377197	1.508179E-04
 0.382202	1.482544E-04
 0.387207	1.458740E-04
 0.392181	1.435547E-04
 0.397186	1.413269E-04
 0.402161	1.391907E-04
 0.407166	1.371155E-04
 0.412140	1.351013E-04
 0.417114	1.331177E-04
 0.422119	1.312561E-04
 0.427094	1.293945E-04
 0.432098	1.275635E-04
 0.437103	1.258240E-04
 0.442078	1.240845E-04
 0.447083	1.223755E-04
 0.452057	1.207581E-04
 0.457062	1.191101E-04
 0.462036	1.175232E-04
 0.467041	1.159363E-04
 0.472015	1.144104E-04
 0.477020	1.129150E-04
 0.482025	1.114502E-04
 0.487000	1.099854E-04
 0.491974	1.085815E-04
 0.496979	1.071777E-04
 0.498230	9.902954E-05
 0.493195	8.886719E-05
 0.488190	8.456421E-05
 0.483215	8.139038E-05
 0.478180	7.876587E-05
 0.473175	7.647705E-05
 0.468170	7.440186E-05
 0.463165	7.247925E-05
 0.458160	7.067871E-05
 0.453156	6.900024E-05
 0.448151	6.735229E-05
 0.443176	6.579590E-05
 0.438141	6.427002E-05
 0.433136	6.274414E-05
 0.428131	6.127930E-05
 0.423126	5.984497E-05
 0.418121	5.838013E-05
 0.413116	5.697632E-05
 0.408112	5.557251E-05
 0.403107	5.416870E-05
 0.398132	5.276489E-05
 0.393097	5.133057E-05
 0.388123	4.989624E-05
 0.383118	4.851685E-05
 0.378113	4.701538E-05
 0.373108	4.554443E-05
 0.368103	4.401245E-05
 0.363098	4.245911E-05
 0.358093	4.085999E-05
 0.353088	3.822632E-05
 0.348083	3.738098E-05
 0.343079	3.567505E-05
 0.338074	3.389893E-05
 0.333069	3.204346E-05
 0.328064	3.011780E-05
 0.323059	2.814026E-05
 0.318085	2.605896E-05
 0.313080	2.394409E-05
 0.308044	2.168274E-05
 0.303040	1.929932E-05
 0.298035	1.676636E-05
 0.293060	1.415100E-05
 0.288055	1.133118E-05
 0.283051	8.328247E-06
 0.278046	5.096436E-06
 0.273041	1.660767E-06
 0.268036	-2.037964E-06
 0.263031	-6.091309E-06
 0.258026	-1.050720E-05
 0.253021	-1.530457E-05
 0.248016	-2.061157E-05
 0.243011	-2.635193E-05
 0.238007	-3.270264E-05
 0.233032	-3.966064E-05
 0.227997	-4.736633E-05
 0.222992	-5.572510E-05
 0.217987	-6.484985E-05
 0.213013	-7.482910E-05
 0.208008	-8.560181E-05
 0.203003	-9.713745E-05
 0.197998	-1.095276E-04
 0.192993	-1.226501E-04
 0.187988	-1.362915E-04
 0.182983	-1.506653E-04
 0.177979	-1.654053E-04
 0.172974	-1.802979E-04
 0.167969	-1.953430E-04
 0.162994	-2.102661E-04
 0.157959	-2.247314E-04
 0.152985	-2.385864E-04
 0.147980	-2.514954E-04
 0.142975	-2.631836E-04
 0.137970	-2.734680E-04
 0.132965	-2.820129E-04
 0.127960	-2.885742E-04
 0.122955	-2.931519E-04
 0.117950	-2.955322E-04
 0.112946	-2.955933E-04
 0.107941	-2.935181E-04
 0.102936	-2.891846E-04
 0.097961	-2.828979E-04
 0.092957	-2.750244E-04
 0.087952	-2.660828E-04
 0.082947	-2.565918E-04
 0.077942	-2.469482E-04
 0.072937	-2.374268E-04
 0.067963	-2.281799E-04
 0.062927	-2.194214E-04
 0.057922	-2.111206E-04
 0.052917	-2.033691E-04
 0.047919	-1.961670E-04
 0.042914	-1.894531E-04
 0.037909	-1.831970E-04
 0.032910	-1.774292E-04
 0.027905	-1.720276E-04
 0.022897	-1.670837E-04
 0.017896	-1.624146E-04
 0.012894	-1.580505E-04
 0.007907	-1.540222E-04
 0.002890	-1.503296E-04
 -0.002112	-1.467285E-04
 -0.007120	-1.435547E-04
 -0.012122	-1.402893E-04
 -0.017126	-1.373596E-04
 -0.022128	-1.346436E-04
 -0.027136	-1.319885E-04
 -0.032135	-1.295776E-04
 -0.037137	-1.273499E-04
 -0.042142	-1.252136E-04
 -0.047144	-1.231689E-04
 -0.052094	-1.212769E-04
 -0.057098	-1.195068E-04
 -0.062103	-1.177673E-04
 -0.067108	-1.160889E-04
 -0.072113	-1.145935E-04
 -0.077087	-1.131287E-04
 -0.082092	-1.117554E-04
 -0.087097	-1.104431E-04
 -0.092102	-1.091919E-04
 -0.097107	-1.080017E-04
 -0.102112	-1.068420E-04
 -0.107117	-1.057434E-04
 -0.112122	-1.047058E-04
 -0.117096	-1.037292E-04
 -0.122101	-1.027527E-04
 -0.127106	-1.018677E-04
 -0.132111	-1.009827E-04
 -0.137115	-1.001282E-04
 -0.142120	-9.930420E-05
 -0.147125	-9.854126E-05
 -0.152130	-9.783936E-05
 -0.157135	-9.707642E-05
 -0.162140	-9.640503E-05
 -0.167114	-9.576416E-05
 -0.172119	-9.515381E-05
 -0.177124	-9.451294E-05
 -0.182129	-9.399414E-05
 -0.187134	-9.338379E-05
 -0.192139	-9.289551E-05
 -0.197144	-9.237671E-05
 -0.202118	-9.182739E-05
 -0.207123	-9.140015E-05
 -0.212128	-9.094238E-05
 -0.217133	-9.048462E-05
 -0.222137	-9.008789E-05
 -0.227142	-8.966064E-05
 -0.232147	-8.929443E-05
 -0.237152	-8.895874E-05
 -0.242126	-8.856201E-05
 -0.247131	-8.822632E-05
 -0.252136	-8.792114E-05
 -0.257141	-8.761597E-05
 -0.262146	-8.734131E-05
 -0.267151	-8.706665E-05
 -0.272156	-8.673096E-05
 -0.277130	-8.651733E-05
 -0.282135	-8.630371E-05
 -0.287170	-8.609009E-05
 -0.292145	-8.584595E-05
 -0.297150	-8.560181E-05
 -0.294434	-4.033203E-05
 -0.289429	-3.230896E-05
 -0.284424	-3.107605E-05
 -0.279449	-3.027649E-05
 -0.274445	-2.961426E-05
 -0.269440	-2.910461E-05
 -0.264465	-2.868347E-05
 -0.259460	-2.826538E-05
 -0.254456	-2.793274E-05
 -0.249451	-2.756653E-05
 -0.244476	-2.724304E-05
 -0.239471	-2.693176E-05
 -0.234497	-2.662659E-05
 -0.229492	-2.642212E-05
 -0.224518	-2.612000E-05
 -0.219513	-2.584229E-05
 -0.214508	-2.569275E-05
 -0.209534	-2.544861E-05
 -0.204529	-2.523499E-05
 -0.199554	-2.505188E-05
 -0.194550	-2.487793E-05
 -0.189545	-2.477112E-05
 -0.184540	-2.456055E-05
 -0.179565	-2.434387E-05
 -0.174561	-2.420654E-05
 -0.169586	-2.399597E-05
 -0.164581	-2.387085E-05
 -0.159576	-2.375793E-05
 -0.154602	-2.355652E-05
 -0.149597	-2.344055E-05
 -0.144623	-2.326965E-05
 -0.139618	-2.318420E-05
 -0.134644	-2.305603E-05
 -0.129639	-2.291565E-05
 -0.124634	-2.283020E-05
 -0.119659	-2.270508E-05
 -0.114655	-2.251282E-05
 -0.109680	-2.243347E-05
 -0.104675	-2.229614E-05
 -0.099701	-2.218018E-05
 -0.094696	-2.205505E-05
 -0.089722	-2.194519E-05
 -0.084717	-2.184143E-05
 -0.079712	-2.171021E-05
 -0.074738	-2.156677E-05
 -0.069733	-2.145691E-05
 -0.064758	-2.128906E-05
 -0.059753	-2.113647E-05
 -0.054749	-2.099915E-05
 -0.049774	-2.078247E-05
 -0.044852	-2.060852E-05
 -0.039862	-2.040710E-05
 -0.034863	-2.015381E-05
 -0.029874	-1.992798E-05
 -0.024881	-1.964722E-05
 -0.019885	-1.932373E-05
 -0.014896	-1.895447E-05
 -0.009900	-1.864014E-05
 -0.004895	-1.811523E-05

 Potential	  Scan 5   
 0.000085	-1.771851E-05
 0.005081	-1.709900E-05
 0.010077	-1.664429E-05
 0.015067	-1.576843E-05
 0.020056	-1.500244E-05
 0.025052	-1.408386E-05
 0.030042	-1.307373E-05
 0.035037	-1.195068E-05
 0.040030	-1.061096E-05
 0.045026	-9.042358E-06
 0.050018	-7.226563E-06
 0.055023	-5.151367E-06
 0.060028	-2.728882E-06
 0.065033	8.483887E-08
 0.070007	3.395691E-06
 0.075012	7.315063E-06
 0.079987	1.178589E-05
 0.084991	1.699829E-05
 0.089966	2.299805E-05
 0.094971	2.980652E-05
 0.099976	3.759766E-05
 0.104950	4.634705E-05
 0.109955	5.615234E-05
 0.114929	6.704712E-05
 0.119934	7.904053E-05
 0.124908	9.201050E-05
 0.129913	1.059875E-04
 0.134888	1.209412E-04
 0.139893	1.366882E-04
 0.144867	1.531067E-04
 0.149872	1.700745E-04
 0.154877	1.873474E-04
 0.159851	2.047119E-04
 0.164825	2.219849E-04
 0.169830	2.388306E-04
 0.174805	2.550964E-04
 0.179810	2.704468E-04
 0.184814	2.845459E-04
 0.189789	2.972717E-04
 0.194794	3.081665E-04
 0.199799	3.171692E-04
 0.204773	3.241577E-04
 0.209747	3.285522E-04
 0.214752	3.307495E-04
 0.219727	3.304443E-04
 0.224731	3.280334E-04
 0.229706	3.236084E-04
 0.234711	3.175049E-04
 0.239716	3.100281E-04
 0.244690	3.016052E-04
 0.249664	2.925110E-04
 0.254669	2.832031E-04
 0.259674	2.738037E-04
 0.264648	2.645569E-04
 0.269653	2.556763E-04
 0.274628	2.470703E-04
 0.279633	2.389832E-04
 0.284607	2.313538E-04
 0.289612	2.241821E-04
 0.294586	2.174072E-04
 0.299591	2.110901E-04
 0.304565	2.052307E-04
 0.309570	1.997070E-04
 0.314575	1.945496E-04
 0.319550	1.896973E-04
 0.324554	1.851501E-04
 0.329529	1.808472E-04
 0.334534	1.767883E-04
 0.339508	1.729736E-04
 0.344513	1.693726E-04
 0.349487	1.659546E-04
 0.354492	1.627502E-04
 0.359467	1.596375E-04
 0.364471	1.566772E-04
 0.369446	1.538391E-04
 0.374451	1.511841E-04
 0.379425	1.485901E-04
 0.384430	1.461487E-04
 0.389404	1.437988E-04
 0.394409	1.415100E-04
 0.399384	1.393127E-04
 0.404388	1.371765E-04
 0.409363	1.351624E-04
 0.414368	1.331482E-04
 0.419342	1.312256E-04
 0.424347	1.293335E-04
 0.429352	1.275024E-04
 0.434326	1.257324E-04
 0.439331	1.239929E-04
 0.444305	1.222839E-04
 0.449310	1.206055E-04
 0.454285	1.189575E-04
 0.459290	1.173401E-04
 0.464264	1.157837E-04
 0.469269	1.142273E-04
 0.474243	1.127319E-04
 0.479248	1.112061E-04
 0.484222	1.097717E-04
 0.489227	1.083374E-04
 0.494202	1.069336E-04
 0.499207	1.055298E-04
 0.500793	9.750366E-05
 0.495422	8.755493E-05
 0.490417	8.331299E-05
 0.485413	8.020020E-05
 0.480408	7.763672E-05
 0.475403	7.537842E-05
 0.470398	7.330322E-05
 0.465393	7.144165E-05
 0.460388	6.970215E-05
 0.455383	6.799316E-05
 0.450378	6.640625E-05
 0.445374	6.488037E-05
 0.440369	6.335449E-05
 0.435364	6.188965E-05
 0.430359	6.042480E-05
 0.425354	5.899048E-05
 0.420349	5.758667E-05
 0.415344	5.621338E-05
 0.410339	5.484009E-05
 0.405365	5.346680E-05
 0.400330	5.206299E-05
 0.395325	5.065918E-05
 0.390350	4.932251E-05
 0.385315	4.789429E-05
 0.380341	4.644165E-05
 0.375336	4.498291E-05
 0.370300	4.347229E-05
 0.365326	4.197083E-05
 0.360291	3.945313E-05
 0.355316	3.862915E-05
 0.350311	3.700867E-05
 0.345306	3.533325E-05
 0.340302	3.355408E-05
 0.335297	3.176270E-05
 0.330292	2.988586E-05
 0.325287	2.796631E-05
 0.320282	2.593994E-05
 0.315308	2.384644E-05
 0.310272	2.165833E-05
 0.305267	1.929016E-05
 0.300262	1.689758E-05
 0.295258	1.432190E-05
 0.290283	1.159058E-05
 0.285278	8.685303E-06
 0.280273	5.624390E-06
 0.275269	2.284851E-06
 0.270264	-1.294556E-06
 0.265259	-5.191040E-06
 0.260254	-9.396362E-06
 0.255249	-1.401978E-05
 0.250275	-1.908875E-05
 0.245239	-2.455750E-05
 0.240265	-3.062134E-05
 0.235260	-3.727417E-05
 0.230255	-4.459839E-05
 0.225250	-5.261230E-05
 0.220245	-6.137085E-05
 0.215240	-7.086182E-05
 0.210236	-8.123779E-05
 0.205231	-9.243774E-05
 0.200226	-1.044006E-04
 0.195221	-1.171570E-04
 0.190216	-1.305237E-04
 0.185211	-1.446228E-04
 0.180206	-1.590881E-04
 0.175232	-1.739807E-04
 0.170227	-1.890259E-04
 0.165222	-2.039185E-04
 0.160217	-2.185974E-04
 0.155212	-2.327576E-04
 0.150208	-2.461243E-04
 0.145203	-2.583923E-04
 0.140228	-2.693787E-04
 0.135193	-2.787781E-04
 0.130219	-2.863464E-04
 0.125214	-2.918701E-04
 0.120209	-2.952576E-04
 0.115204	-2.964172E-04
 0.110199	-2.953491E-04
 0.105194	-2.921143E-04
 0.100189	-2.867432E-04
 0.095184	-2.796021E-04
 0.090210	-2.710266E-04
 0.085205	-2.618103E-04
 0.080200	-2.521362E-04
 0.075195	-2.425842E-04
 0.070190	-2.331848E-04
 0.065186	-2.242126E-04
 0.060181	-2.156677E-04
 0.055176	-2.076721E-04
 0.050171	-2.001953E-04
 0.045163	-1.932373E-04
 0.040158	-1.868286E-04
 0.035156	-1.808472E-04
 0.030151	-1.752319E-04
 0.025146	-1.701050E-04
 0.020145	-1.652832E-04
 0.015140	-1.607971E-04
 0.010138	-1.566162E-04
 0.005139	-1.526489E-04
 0.000134	-1.490784E-04
 -0.004855	-1.455078E-04
 -0.009872	-1.424255E-04
 -0.014874	-1.394043E-04
 -0.019876	-1.365967E-04
 -0.024881	-1.339417E-04
 -0.029883	-1.314392E-04
 -0.034885	-1.290894E-04
 -0.039890	-1.268616E-04
 -0.044894	-1.248474E-04
 -0.049835	-1.228333E-04
 -0.054840	-1.210022E-04
 -0.059845	-1.192627E-04
 -0.064850	-1.175842E-04
 -0.069855	-1.159973E-04
 -0.074860	-1.145325E-04
 -0.079834	-1.130981E-04
 -0.084839	-1.117554E-04
 -0.089844	-1.104736E-04
 -0.094849	-1.091919E-04
 -0.099854	-1.080627E-04
 -0.104858	-1.069336E-04
 -0.109863	-1.058655E-04
 -0.114868	-1.048889E-04
 -0.119843	-1.039124E-04
 -0.124847	-1.029968E-04
 -0.129852	-1.020508E-04
 -0.134857	-1.011658E-04
 -0.139862	-1.003723E-04
 -0.144867	-9.957886E-05
 -0.149872	-9.884644E-05
 -0.154877	-9.811401E-05
 -0.159882	-9.741211E-05
 -0.164856	-9.674072E-05
 -0.169861	-9.609985E-05
 -0.174866	-9.548950E-05
 -0.179871	-9.490967E-05
 -0.184875	-9.429932E-05
 -0.189880	-9.378052E-05
 -0.194885	-9.326172E-05
 -0.199890	-9.274292E-05
 -0.204865	-9.225464E-05
 -0.209869	-9.176636E-05
 -0.214874	-9.136963E-05
 -0.219879	-9.091187E-05
 -0.224884	-9.048462E-05
 -0.229889	-9.011841E-05
 -0.234894	-8.975220E-05
 -0.239899	-8.938599E-05
 -0.244904	-8.905029E-05
 -0.249878	-8.865356E-05
 -0.254913	-8.840942E-05
 -0.259888	-8.807373E-05
 -0.264893	-8.776855E-05
 -0.269897	-8.752441E-05
 -0.274902	-8.731079E-05
 -0.279907	-8.703613E-05
 -0.284882	-8.679199E-05
 -0.289886	-8.657837E-05
 -0.294891	-8.633423E-05
 -0.296478	-7.089233E-05
 -0.291473	-3.418274E-05
 -0.286469	-3.212891E-05
 -0.281494	-3.119202E-05
 -0.276489	-3.049011E-05
 -0.271515	-3.000183E-05
 -0.266510	-2.950439E-05
 -0.261505	-2.905884E-05
 -0.256531	-2.867126E-05
 -0.251526	-2.830811E-05
 -0.246521	-2.801514E-05
 -0.241516	-2.771912E-05
 -0.236542	-2.738953E-05
 -0.231537	-2.713318E-05
 -0.226563	-2.688904E-05
 -0.221558	-2.658997E-05
 -0.216553	-2.639160E-05
 -0.211578	-2.617798E-05
 -0.206573	-2.593079E-05
 -0.201599	-2.573242E-05
 -0.196594	-2.554016E-05
 -0.191589	-2.534485E-05
 -0.186615	-2.518616E-05
 -0.181610	-2.500916E-05
 -0.176605	-2.487488E-05
 -0.171631	-2.469177E-05
 -0.166626	-2.454224E-05
 -0.161621	-2.439575E-05
 -0.156647	-2.424622E-05
 -0.151642	-2.410583E-05
 -0.146667	-2.393799E-05
 -0.141663	-2.381897E-05
 -0.136688	-2.368774E-05
 -0.131683	-2.359009E-05
 -0.126678	-2.345581E-05
 -0.121704	-2.333069E-05
 -0.116699	-2.319336E-05
 -0.111694	-2.308350E-05
 -0.106720	-2.293396E-05
 -0.101715	-2.283936E-05
 -0.096741	-2.270508E-05
 -0.091736	-2.258911E-05
 -0.086761	-2.244263E-05
 -0.081757	-2.232361E-05
 -0.076782	-2.219238E-05
 -0.071777	-2.206726E-05
 -0.066803	-2.192993E-05
 -0.061798	-2.176819E-05
 -0.056793	-2.160950E-05
 -0.051819	-2.145996E-05
 -0.046890	-2.126465E-05
 -0.041901	-2.106323E-05
 -0.036908	-2.084351E-05
 -0.031915	-2.060547E-05
 -0.026923	-2.029114E-05
 -0.021930	-1.998901E-05
 -0.016934	-1.968689E-05
 -0.011938	-1.926880E-05
 -0.006946	-1.885986E-05
 -0.001953	-1.852112E-05
